OOIBase32 Version 1.0.0.8 Data File
++++++++++++++++++++++++++++++++++++
Date: Monday, January 14, 1980, 01:36:04
User: Valued Ocean Optics Customer
Spectrometer Serial Number: Unknown
Spectrometer Channel: Master
Integration Time (msec): 3
Spectra Averaged: 10
Boxcar Smoothing: 0
Correct for Electrical Dark: Disabled
Time Normalized: Disabled
Dual-beam Reference: Disabled
Reference Channel: Master
>>>>>Begin Spectral Data<<<<<
179.00	0.0000
179.38	0.0000
179.75	82.6000
180.13	81.4000
180.51	82.2000
180.88	83.7000
181.26	83.8000
181.64	83.9000
182.02	84.2000
182.39	82.9000
182.77	83.7000
183.15	83.3000
183.52	82.4000
183.90	83.6000
184.28	84.5000
184.65	82.8000
185.03	81.4000
185.41	82.4000
185.78	84.0000
186.16	84.4000
186.53	84.1000
186.91	80.8000
187.29	82.6000
187.66	82.6000
188.04	84.6000
188.42	84.4000
188.79	85.7000
189.17	83.7000
189.55	86.1000
189.92	85.6000
190.30	86.7000
190.67	85.1000
191.05	83.9000
191.43	85.1000
191.80	84.4000
192.18	84.5000
192.56	85.3000
192.93	86.8000
193.31	84.3000
193.68	85.0000
194.06	84.9000
194.44	85.5000
194.81	85.2000
195.19	85.3000
195.56	86.3000
195.94	85.0000
196.32	84.7000
196.69	85.2000
197.07	84.4000
197.44	85.0000
197.82	85.4000
198.19	84.6000
198.57	84.8000
198.95	84.7000
199.32	83.9000
199.70	84.8000
200.07	83.2000
200.45	86.1000
200.82	86.7000
201.20	86.4000
201.57	86.5000
201.95	85.2000
202.33	85.7000
202.70	84.4000
203.08	84.8000
203.45	84.6000
203.83	84.6000
204.20	86.0000
204.58	85.6000
204.95	84.2000
205.33	85.0000
205.70	85.1000
206.08	85.0000
206.45	84.6000
206.83	85.6000
207.20	86.4000
207.58	86.0000
207.95	85.0000
208.33	83.5000
208.70	85.7000
209.08	85.9000
209.45	87.7000
209.83	84.1000
210.20	85.4000
210.58	86.9000
210.95	85.1000
211.33	85.1000
211.70	84.9000
212.08	85.5000
212.45	85.5000
212.83	85.7000
213.20	85.0000
213.58	85.6000
213.95	86.1000
214.33	84.7000
214.70	84.9000
215.07	85.7000
215.45	86.2000
215.82	85.0000
216.20	85.4000
216.57	84.0000
216.95	86.0000
217.32	87.1000
217.70	85.8000
218.07	85.1000
218.44	86.0000
218.82	85.4000
219.19	83.8000
219.57	84.8000
219.94	86.4000
220.32	86.0000
220.69	85.8000
221.06	85.4000
221.44	86.0000
221.81	86.7000
222.19	85.9000
222.56	84.6000
222.93	87.0000
223.31	86.8000
223.68	86.7000
224.06	87.9000
224.43	85.5000
224.80	85.0000
225.18	85.0000
225.55	86.2000
225.92	86.8000
226.30	85.6000
226.67	86.6000
227.05	88.1000
227.42	85.8000
227.79	86.1000
228.17	85.5000
228.54	86.2000
228.91	86.9000
229.29	86.6000
229.66	85.9000
230.03	86.9000
230.41	87.0000
230.78	86.1000
231.15	86.0000
231.53	85.5000
231.90	86.4000
232.27	85.5000
232.65	85.1000
233.02	87.0000
233.39	86.4000
233.77	86.4000
234.14	86.3000
234.51	87.3000
234.89	85.6000
235.26	85.4000
235.63	86.5000
236.01	87.0000
236.38	86.5000
236.75	86.2000
237.12	85.4000
237.50	86.3000
237.87	87.4000
238.24	86.1000
238.62	85.1000
238.99	86.7000
239.36	86.1000
239.73	86.9000
240.11	85.2000
240.48	84.0000
240.85	85.9000
241.23	86.5000
241.60	85.5000
241.97	85.3000
242.34	85.4000
242.72	85.9000
243.09	85.1000
243.46	87.1000
243.83	86.1000
244.21	84.9000
244.58	84.9000
244.95	85.9000
245.32	84.7000
245.70	86.1000
246.07	86.6000
246.44	85.8000
246.81	86.0000
247.18	84.8000
247.56	86.1000
247.93	84.5000
248.30	86.7000
248.67	84.6000
249.04	86.0000
249.42	85.8000
249.79	85.6000
250.16	84.1000
250.53	86.2000
250.90	84.8000
251.28	85.2000
251.65	85.4000
252.02	86.7000
252.39	86.5000
252.76	86.2000
253.14	86.4000
253.51	86.3000
253.88	86.3000
254.25	85.2000
254.62	87.4000
254.99	86.2000
255.37	84.9000
255.74	86.3000
256.11	85.9000
256.48	85.0000
256.85	85.4000
257.22	86.4000
257.59	85.8000
257.97	86.8000
258.34	88.2000
258.71	88.1000
259.08	88.6000
259.45	88.4000
259.82	87.6000
260.19	88.9000
260.56	89.4000
260.94	88.9000
261.31	89.8000
261.68	91.3000
262.05	89.6000
262.42	89.9000
262.79	92.6000
263.16	92.6000
263.53	93.5000
263.90	92.3000
264.28	93.2000
264.65	93.8000
265.02	94.7000
265.39	96.1000
265.76	95.3000
266.13	97.9000
266.50	97.0000
266.87	98.1000
267.24	97.9000
267.61	98.1000
267.98	99.4000
268.35	100.2000
268.72	100.6000
269.09	100.3000
269.46	100.9000
269.84	101.5000
270.21	101.2000
270.58	101.4000
270.95	104.1000
271.32	104.2000
271.69	104.1000
272.06	105.2000
272.43	104.6000
272.80	104.0000
273.17	105.6000
273.54	107.3000
273.91	105.5000
274.28	107.4000
274.65	107.2000
275.02	106.9000
275.39	106.3000
275.76	106.7000
276.13	106.2000
276.50	106.6000
276.87	106.4000
277.24	108.8000
277.61	107.8000
277.98	110.1000
278.35	108.7000
278.72	109.5000
279.09	109.4000
279.46	110.7000
279.83	110.3000
280.20	109.4000
280.57	112.2000
280.94	111.0000
281.31	110.5000
281.67	112.2000
282.04	113.3000
282.41	113.8000
282.78	113.4000
283.15	114.7000
283.52	117.1000
283.89	117.1000
284.26	114.8000
284.63	116.5000
285.00	118.8000
285.37	118.7000
285.74	117.9000
286.11	119.4000
286.48	119.3000
286.85	119.9000
287.21	117.4000
287.58	117.1000
287.95	120.4000
288.32	120.4000
288.69	123.4000
289.06	122.3000
289.43	123.3000
289.80	124.2000
290.17	122.1000
290.54	121.9000
290.90	124.5000
291.27	124.8000
291.64	126.0000
292.01	124.1000
292.38	124.8000
292.75	125.6000
293.12	124.6000
293.48	126.4000
293.85	127.7000
294.22	126.6000
294.59	127.9000
294.96	126.7000
295.33	126.5000
295.70	126.8000
296.06	125.8000
296.43	126.6000
296.80	123.3000
297.17	126.8000
297.54	128.1000
297.91	128.0000
298.27	129.0000
298.64	132.6000
299.01	128.8000
299.38	129.7000
299.75	131.6000
300.11	132.8000
300.48	129.4000
300.85	137.0000
301.22	135.6000
301.59	133.0000
301.95	132.4000
302.32	132.4000
302.69	133.3000
303.06	133.2000
303.43	133.7000
303.79	135.9000
304.16	138.3000
304.53	136.9000
304.90	138.3000
305.26	137.4000
305.63	139.1000
306.00	137.5000
306.37	137.3000
306.73	136.9000
307.10	139.4000
307.47	139.5000
307.84	139.9000
308.20	141.4000
308.57	140.5000
308.94	139.2000
309.31	139.1000
309.67	140.2000
310.04	142.6000
310.41	143.3000
310.77	139.6000
311.14	141.4000
311.51	140.2000
311.88	141.7000
312.24	142.1000
312.61	140.3000
312.98	141.2000
313.34	143.4000
313.71	145.8000
314.08	145.4000
314.44	144.1000
314.81	145.5000
315.18	144.3000
315.55	144.7000
315.91	147.0000
316.28	148.2000
316.65	146.5000
317.01	149.8000
317.38	148.0000
317.75	146.2000
318.11	146.4000
318.48	145.7000
318.84	149.4000
319.21	147.4000
319.58	149.8000
319.94	147.8000
320.31	151.9000
320.68	150.9000
321.04	151.9000
321.41	152.6000
321.78	150.9000
322.14	149.6000
322.51	153.2000
322.87	155.5000
323.24	153.4000
323.61	154.9000
323.97	153.8000
324.34	155.2000
324.70	155.2000
325.07	154.8000
325.44	154.3000
325.80	155.6000
326.17	157.7000
326.53	158.0000
326.90	158.4000
327.27	160.1000
327.63	161.5000
328.00	159.4000
328.36	158.9000
328.73	163.7000
329.09	161.4000
329.46	162.0000
329.83	162.5000
330.19	162.4000
330.56	164.2000
330.92	164.1000
331.29	163.5000
331.65	165.5000
332.02	164.7000
332.38	166.4000
332.75	168.0000
333.11	168.8000
333.48	169.8000
333.84	171.3000
334.21	172.7000
334.58	171.4000
334.94	168.5000
335.31	170.5000
335.67	172.0000
336.04	169.9000
336.40	169.8000
336.77	171.0000
337.13	169.1000
337.50	172.0000
337.86	173.9000
338.22	176.4000
338.59	175.9000
338.95	176.7000
339.32	177.7000
339.68	178.4000
340.05	176.8000
340.41	176.9000
340.78	176.3000
341.14	178.3000
341.51	179.9000
341.87	180.6000
342.24	183.5000
342.60	187.1000
342.96	186.7000
343.33	188.6000
343.69	186.9000
344.06	191.3000
344.42	191.8000
344.79	191.0000
345.15	195.7000
345.51	195.6000
345.88	197.8000
346.24	197.6000
346.61	198.8000
346.97	202.1000
347.34	200.7000
347.70	203.5000
348.06	201.4000
348.43	209.7000
348.79	208.2000
349.16	207.6000
349.52	212.3000
349.88	212.5000
350.25	213.1000
350.61	212.4000
350.97	215.2000
351.34	214.4000
351.70	218.9000
352.07	213.5000
352.43	217.0000
352.79	216.7000
353.16	221.0000
353.52	221.9000
353.88	222.9000
354.25	224.0000
354.61	225.0000
354.97	222.5000
355.34	228.2000
355.70	227.9000
356.06	227.0000
356.43	234.2000
356.79	230.5000
357.15	236.7000
357.52	234.9000
357.88	235.0000
358.24	241.1000
358.60	241.5000
358.97	242.9000
359.33	247.2000
359.69	245.1000
360.06	250.7000
360.42	249.6000
360.78	252.8000
361.14	255.9000
361.51	256.8000
361.87	262.0000
362.23	266.5000
362.60	266.4000
362.96	267.2000
363.32	267.8000
363.68	274.3000
364.05	274.4000
364.41	277.1000
364.77	285.0000
365.13	282.3000
365.50	285.4000
365.86	295.1000
366.22	296.1000
366.58	295.4000
366.95	298.7000
367.31	296.2000
367.67	308.7000
368.03	300.4000
368.39	309.3000
368.76	312.4000
369.12	300.8000
369.48	305.7000
369.84	306.0000
370.20	321.4000
370.57	315.1000
370.93	322.2000
371.29	316.3000
371.65	324.0000
372.01	322.7000
372.38	322.3000
372.74	332.4000
373.10	316.3000
373.46	331.3000
373.82	332.3000
374.18	332.7000
374.55	331.2000
374.91	343.5000
375.27	348.1000
375.63	342.0000
375.99	341.8000
376.35	350.1000
376.71	346.9000
377.08	357.3000
377.44	360.8000
377.80	384.8000
378.16	373.1000
378.52	381.9000
378.88	387.5000
379.24	383.0000
379.60	397.0000
379.97	406.2000
380.33	408.8000
380.69	394.7000
381.05	400.4000
381.41	420.6000
381.77	404.3000
382.13	409.0000
382.49	409.3000
382.85	404.9000
383.21	428.7000
383.57	397.7000
383.94	432.4000
384.30	428.2000
384.66	424.4000
385.02	407.1000
385.38	423.4000
385.74	413.1000
386.10	433.4000
386.46	458.9000
386.82	445.6000
387.18	462.9000
387.54	462.2000
387.90	445.1000
388.26	465.9000
388.62	463.4000
388.98	440.8000
389.34	453.0000
389.70	459.1000
390.06	416.9000
390.42	430.1000
390.78	480.9000
391.14	508.3000
391.50	492.1000
391.86	516.7000
392.22	526.4000
392.58	512.5000
392.94	448.8000
393.30	470.2000
393.66	488.4000
394.02	497.9000
394.38	436.1000
394.74	467.7000
395.10	473.2000
395.46	497.3000
395.82	495.1000
396.18	476.1000
396.54	542.2000
396.90	553.3000
397.26	535.9000
397.62	525.0000
397.98	570.5000
398.34	499.7000
398.70	517.2000
399.05	463.5000
399.41	467.0000
399.77	484.5000
400.13	506.9000
400.49	522.6000
400.85	518.7000
401.21	482.4000
401.57	536.2000
401.93	500.3000
402.29	487.3000
402.65	499.5000
403.00	526.0000
403.36	529.9000
403.72	519.3000
404.08	587.3000
404.44	528.8000
404.80	546.2000
405.16	552.2000
405.52	540.8000
405.87	554.5000
406.23	547.5000
406.59	485.1000
406.95	519.9000
407.31	528.7000
407.67	532.7000
408.03	544.9000
408.38	552.4000
408.74	595.2000
409.10	601.0000
409.46	542.4000
409.82	559.7000
410.17	552.4000
410.53	530.0000
410.89	547.3000
411.25	490.3000
411.61	535.0000
411.97	571.5000
412.32	572.1000
412.68	582.8000
413.04	534.3000
413.40	489.9000
413.75	524.2000
414.11	521.7000
414.47	511.9000
414.83	593.5000
415.19	532.1000
415.54	494.6000
415.90	566.7000
416.26	551.4000
416.62	562.0000
416.97	498.1000
417.33	576.3000
417.69	572.3000
418.05	549.1000
418.40	525.2000
418.76	525.0000
419.12	583.2000
419.48	599.4000
419.83	645.8000
420.19	573.2000
420.55	581.3000
420.90	673.6000
421.26	632.7000
421.62	561.7000
421.98	622.8000
422.33	651.0000
422.69	676.3000
423.05	635.0000
423.40	550.5000
423.76	541.0000
424.12	603.7000
424.47	594.7000
424.83	554.8000
425.19	561.4000
425.54	572.2000
425.90	615.7000
426.26	635.0000
426.61	657.8000
426.97	507.4000
427.33	610.5000
427.68	587.9000
428.04	683.3000
428.40	692.5000
428.75	732.9000
429.11	634.9000
429.47	746.2000
429.82	738.1000
430.18	675.4000
430.53	644.1000
430.89	642.3000
431.25	614.1000
431.60	631.9000
431.96	610.7000
432.31	610.5000
432.67	679.1000
433.03	723.4000
433.38	652.0000
433.74	657.8000
434.09	663.1000
434.45	647.2000
434.81	615.3000
435.16	668.9000
435.52	605.3000
435.87	598.9000
436.23	600.5000
436.58	602.2000
436.94	630.3000
437.30	665.6000
437.65	688.6000
438.01	687.7000
438.36	627.7000
438.72	605.7000
439.07	591.7000
439.43	627.3000
439.78	686.7000
440.14	755.5000
440.49	658.7000
440.85	684.2000
441.20	716.1000
441.56	684.5000
441.91	741.3000
442.27	669.3000
442.62	686.7000
442.98	710.5000
443.33	683.1000
443.69	696.2000
444.04	672.8000
444.40	622.8000
444.75	702.1000
445.11	740.6000
445.46	761.1000
445.82	740.9000
446.17	683.0000
446.53	720.1000
446.88	793.7000
447.23	646.0000
447.59	656.1000
447.94	663.5000
448.30	684.1000
448.65	671.6000
449.01	716.9000
449.36	719.0000
449.72	743.4000
450.07	783.2000
450.42	725.0000
450.78	696.0000
451.13	733.7000
451.49	688.8000
451.84	681.5000
452.19	646.7000
452.55	659.4000
452.90	684.0000
453.26	756.8000
453.61	771.8000
453.96	632.7000
454.32	724.8000
454.67	689.5000
455.02	624.4000
455.38	663.8000
455.73	669.6000
456.09	752.0000
456.44	755.8000
456.79	756.4000
457.15	726.9000
457.50	706.7000
457.85	708.2000
458.21	741.1000
458.56	725.2000
458.91	699.8000
459.27	651.2000
459.62	698.6000
459.97	706.0000
460.32	725.6000
460.68	683.9000
461.03	646.4000
461.38	672.6000
461.74	744.9000
462.09	711.8000
462.44	685.1000
462.80	721.0000
463.15	719.7000
463.50	713.7000
463.85	756.5000
464.21	782.7000
464.56	813.8000
464.91	719.1000
465.26	714.5000
465.62	740.9000
465.97	781.1000
466.32	747.6000
466.67	754.9000
467.03	726.2000
467.38	732.7000
467.73	731.1000
468.08	754.0000
468.44	760.0000
468.79	734.1000
469.14	695.9000
469.49	730.8000
469.85	733.3000
470.20	800.9000
470.55	814.7000
470.90	806.3000
471.25	742.6000
471.61	794.8000
471.96	803.7000
472.31	847.4000
472.66	850.2000
473.01	864.0000
473.36	878.8000
473.72	887.2000
474.07	907.4000
474.42	905.6000
474.77	911.6000
475.12	925.6000
475.47	936.9000
475.83	940.2000
476.18	923.4000
476.53	912.5000
476.88	981.7000
477.23	979.5000
477.58	963.8000
477.93	970.9000
478.28	973.3000
478.64	998.6000
478.99	1021.6000
479.34	1049.4000
479.69	1061.1000
480.04	1070.6000
480.39	1074.4000
480.74	1045.3000
481.09	1119.8000
481.44	1102.0000
481.79	1087.7000
482.15	1102.5000
482.50	1118.2000
482.85	1126.2000
483.20	1179.4000
483.55	1205.7000
483.90	1251.7000
484.25	1476.1000
484.60	1647.0000
484.95	1764.3000
485.30	1672.3000
485.65	1498.6000
486.00	1427.1000
486.35	1292.9000
486.70	1235.8000
487.05	1250.9000
487.40	1233.3000
487.75	1226.9000
488.10	1228.6000
488.45	1218.7000
488.80	1224.8000
489.15	1238.9000
489.50	1238.5000
489.85	1247.6000
490.20	1225.7000
490.55	1250.9000
490.90	1249.2000
491.25	1249.8000
491.60	1230.5000
491.95	1233.1000
492.30	1247.9000
492.65	1263.6000
493.00	1258.5000
493.35	1260.6000
493.70	1261.8000
494.05	1254.9000
494.40	1284.8000
494.75	1302.5000
495.10	1309.9000
495.45	1326.8000
495.80	1317.2000
496.15	1296.5000
496.50	1260.5000
496.84	1254.4000
497.19	1258.7000
497.54	1280.7000
497.89	1297.5000
498.24	1292.9000
498.59	1313.5000
498.94	1287.7000
499.29	1273.6000
499.64	1283.7000
499.99	1296.0000
500.33	1317.3000
500.68	1322.0000
501.03	1321.2000
501.38	1323.7000
501.73	1334.3000
502.08	1329.3000
502.43	1335.3000
502.77	1332.2000
503.12	1314.9000
503.47	1313.5000
503.82	1333.1000
504.17	1317.8000
504.52	1340.2000
504.86	1330.2000
505.21	1344.7000
505.56	1336.0000
505.91	1326.4000
506.26	1313.4000
506.61	1329.8000
506.95	1335.5000
507.30	1330.8000
507.65	1345.6000
508.00	1334.2000
508.35	1334.4000
508.69	1339.2000
509.04	1346.4000
509.39	1340.3000
509.74	1337.3000
510.08	1347.8000
510.43	1354.3000
510.78	1340.8000
511.13	1346.5000
511.47	1355.2000
511.82	1366.3000
512.17	1354.8000
512.52	1361.3000
512.86	1368.2000
513.21	1369.2000
513.56	1355.3000
513.91	1359.6000
514.25	1347.9000
514.60	1355.6000
514.95	1368.8000
515.30	1372.7000
515.64	1372.2000
515.99	1380.5000
516.34	1373.6000
516.68	1373.5000
517.03	1367.6000
517.38	1379.3000
517.72	1407.4000
518.07	1393.6000
518.42	1393.0000
518.76	1397.3000
519.11	1387.1000
519.46	1392.2000
519.80	1377.4000
520.15	1387.4000
520.50	1401.8000
520.84	1396.1000
521.19	1403.4000
521.54	1413.1000
521.88	1383.7000
522.23	1404.4000
522.58	1403.7000
522.92	1417.9000
523.27	1412.5000
523.61	1404.7000
523.96	1404.5000
524.31	1422.7000
524.65	1418.5000
525.00	1417.3000
525.34	1395.2000
525.69	1407.1000
526.04	1421.8000
526.38	1421.9000
526.73	1413.1000
527.07	1426.3000
527.42	1426.7000
527.76	1441.6000
528.11	1456.5000
528.46	1428.6000
528.80	1434.7000
529.15	1419.6000
529.49	1418.9000
529.84	1426.2000
530.18	1429.7000
530.53	1446.5000
530.87	1434.4000
531.22	1434.1000
531.56	1440.3000
531.91	1455.3000
532.25	1468.9000
532.60	1472.9000
532.94	1472.2000
533.29	1469.7000
533.63	1465.5000
533.98	1463.7000
534.32	1471.1000
534.67	1480.6000
535.01	1468.2000
535.36	1440.5000
535.70	1453.2000
536.05	1451.4000
536.39	1467.3000
536.74	1456.6000
537.08	1461.9000
537.43	1464.0000
537.77	1488.6000
538.12	1492.3000
538.46	1488.4000
538.80	1487.3000
539.15	1470.1000
539.49	1486.9000
539.84	1509.8000
540.18	1495.1000
540.53	1489.5000
540.87	1495.5000
541.21	1518.7000
541.56	1511.6000
541.90	1505.8000
542.25	1495.5000
542.59	1486.0000
542.93	1508.3000
543.28	1496.4000
543.62	1512.9000
543.97	1511.0000
544.31	1498.2000
544.65	1491.6000
545.00	1492.2000
545.34	1498.0000
545.68	1502.9000
546.03	1499.6000
546.37	1548.0000
546.71	1574.1000
547.06	1568.6000
547.40	1556.0000
547.74	1553.0000
548.09	1528.1000
548.43	1513.5000
548.77	1506.7000
549.12	1502.3000
549.46	1495.8000
549.80	1502.1000
550.15	1508.8000
550.49	1522.6000
550.83	1529.8000
551.17	1548.6000
551.52	1543.7000
551.86	1546.9000
552.20	1548.0000
552.55	1562.1000
552.89	1548.4000
553.23	1529.0000
553.57	1540.9000
553.92	1537.1000
554.26	1556.6000
554.60	1551.9000
554.94	1567.8000
555.29	1561.1000
555.63	1559.1000
555.97	1560.3000
556.31	1558.2000
556.66	1558.9000
557.00	1542.5000
557.34	1539.0000
557.68	1542.0000
558.02	1537.3000
558.37	1541.8000
558.71	1564.2000
559.05	1575.1000
559.39	1602.3000
559.73	1614.6000
560.08	1601.6000
560.42	1607.3000
560.76	1601.6000
561.10	1586.3000
561.44	1571.5000
561.78	1585.9000
562.13	1606.1000
562.47	1595.3000
562.81	1618.5000
563.15	1619.5000
563.49	1622.5000
563.83	1625.9000
564.17	1617.6000
564.52	1607.0000
564.86	1605.9000
565.20	1605.0000
565.54	1603.8000
565.88	1622.0000
566.22	1639.4000
566.56	1642.7000
566.90	1670.3000
567.24	1700.9000
567.59	1711.6000
567.93	1751.2000
568.27	1776.9000
568.61	1826.1000
568.95	1823.1000
569.29	1839.6000
569.63	1881.1000
569.97	1905.2000
570.31	1924.0000
570.65	1953.8000
570.99	1947.1000
571.33	1931.1000
571.67	1907.8000
572.01	1942.4000
572.35	1995.8000
572.69	2032.9000
573.03	2047.7000
573.37	2083.5000
573.71	2074.2000
574.05	2053.1001
574.39	2020.1000
574.73	2013.9000
575.07	2002.6000
575.41	2025.1000
575.75	2030.0000
576.09	2124.3000
576.43	2205.8000
576.77	2265.2000
577.11	2248.1001
577.45	2175.3999
577.79	2097.7000
578.13	2084.5000
578.47	2057.8999
578.81	2073.8999
579.15	2054.1001
579.49	2080.2000
579.83	2205.7000
580.17	2334.8999
580.51	2433.6001
580.85	2440.5000
581.19	2335.8999
581.53	2220.0000
581.87	2096.2000
582.20	1986.9000
582.54	1933.3000
582.88	1922.1000
583.22	1955.7000
583.56	2032.4000
583.90	2117.3999
584.24	2163.5000
584.58	2120.3000
584.92	2073.0000
585.25	2023.2000
585.59	1993.4000
585.93	2012.7000
586.27	2051.7000
586.61	2020.9000
586.95	2024.9000
587.29	1992.7000
587.62	1937.0000
587.96	1896.1000
588.30	1863.5000
588.64	1828.7000
588.98	1827.9000
589.31	1807.4000
589.65	1775.8000
589.99	1748.4000
