OOIBase32 Version 1.0.0.8 Data File
++++++++++++++++++++++++++++++++++++
Date: Monday, January 14, 1980, 01:36:04
User: Valued Ocean Optics Customer
Spectrometer Serial Number: Unknown
Spectrometer Channel: Master
Integration Time (msec): 3
Spectra Averaged: 10
Boxcar Smoothing: 0
Correct for Electrical Dark: Disabled
Time Normalized: Disabled
Dual-beam Reference: Disabled
Reference Channel: Master
>>>>>Begin Spectral Data<<<<<
179.00	0.0000
179.38	0.0000
179.75	81.2000
180.13	81.4000
180.51	82.1000
180.88	82.1000
181.26	82.9000
181.64	83.2000
182.02	82.9000
182.39	82.8000
182.77	81.4000
183.15	83.5000
183.52	81.2000
183.90	81.8000
184.28	83.6000
184.65	83.7000
185.03	81.6000
185.41	82.6000
185.78	83.7000
186.16	83.8000
186.53	83.4000
186.91	83.7000
187.29	82.3000
187.66	81.8000
188.04	82.9000
188.42	83.7000
188.79	83.7000
189.17	82.9000
189.55	83.3000
189.92	82.6000
190.30	82.7000
190.67	84.4000
191.05	85.1000
191.43	83.3000
191.80	85.0000
192.18	84.6000
192.56	84.5000
192.93	84.2000
193.31	84.0000
193.68	83.9000
194.06	83.2000
194.44	84.7000
194.81	83.6000
195.19	82.4000
195.56	84.0000
195.94	83.5000
196.32	83.9000
196.69	83.7000
197.07	84.0000
197.44	83.9000
197.82	85.5000
198.19	85.1000
198.57	84.9000
198.95	84.8000
199.32	83.2000
199.70	85.3000
200.07	84.1000
200.45	84.3000
200.82	85.3000
201.20	85.5000
201.57	85.1000
201.95	83.5000
202.33	84.7000
202.70	84.5000
203.08	84.2000
203.45	83.6000
203.83	84.2000
204.20	84.0000
204.58	83.4000
204.95	84.0000
205.33	84.4000
205.70	83.7000
206.08	84.9000
206.45	85.2000
206.83	84.0000
207.20	83.7000
207.58	84.7000
207.95	84.9000
208.33	85.1000
208.70	84.3000
209.08	84.4000
209.45	84.8000
209.83	84.7000
210.20	85.1000
210.58	83.8000
210.95	85.0000
211.33	84.7000
211.70	85.1000
212.08	84.2000
212.45	84.9000
212.83	85.0000
213.20	83.0000
213.58	85.3000
213.95	85.6000
214.33	84.4000
214.70	83.3000
215.07	83.7000
215.45	85.3000
215.82	84.3000
216.20	83.2000
216.57	86.1000
216.95	85.2000
217.32	85.0000
217.70	84.1000
218.07	84.9000
218.44	85.1000
218.82	84.3000
219.19	86.1000
219.57	85.2000
219.94	84.6000
220.32	84.3000
220.69	85.5000
221.06	84.7000
221.44	84.6000
221.81	84.7000
222.19	83.9000
222.56	85.1000
222.93	84.9000
223.31	84.9000
223.68	85.4000
224.06	84.5000
224.43	85.2000
224.80	84.7000
225.18	85.1000
225.55	85.5000
225.92	84.9000
226.30	85.2000
226.67	84.8000
227.05	86.3000
227.42	84.7000
227.79	85.0000
228.17	84.7000
228.54	86.3000
228.91	86.0000
229.29	84.8000
229.66	86.4000
230.03	86.0000
230.41	85.7000
230.78	84.0000
231.15	86.7000
231.53	85.5000
231.90	83.5000
232.27	84.7000
232.65	85.3000
233.02	84.6000
233.39	85.7000
233.77	86.2000
234.14	86.4000
234.51	86.3000
234.89	86.5000
235.26	85.4000
235.63	84.2000
236.01	83.6000
236.38	84.5000
236.75	86.9000
237.12	85.7000
237.50	84.7000
237.87	84.8000
238.24	84.7000
238.62	85.0000
238.99	84.7000
239.36	85.8000
239.73	85.3000
240.11	84.6000
240.48	85.4000
240.85	85.4000
241.23	84.4000
241.60	84.7000
241.97	83.8000
242.34	83.7000
242.72	85.1000
243.09	85.7000
243.46	84.6000
243.83	84.9000
244.21	84.7000
244.58	84.7000
244.95	85.9000
245.32	85.8000
245.70	84.8000
246.07	84.0000
246.44	84.6000
246.81	85.5000
247.18	86.0000
247.56	85.6000
247.93	85.1000
248.30	83.3000
248.67	85.3000
249.04	84.2000
249.42	84.6000
249.79	86.0000
250.16	84.3000
250.53	84.3000
250.90	86.4000
251.28	84.4000
251.65	84.0000
252.02	84.6000
252.39	84.8000
252.76	85.8000
253.14	85.5000
253.51	85.4000
253.88	86.1000
254.25	85.9000
254.62	85.5000
254.99	86.9000
255.37	85.9000
255.74	85.8000
256.11	84.9000
256.48	85.4000
256.85	85.1000
257.22	84.0000
257.59	85.9000
257.97	86.3000
258.34	85.5000
258.71	86.5000
259.08	86.4000
259.45	86.5000
259.82	86.1000
260.19	88.5000
260.56	85.1000
260.94	85.6000
261.31	86.9000
261.68	88.5000
262.05	88.6000
262.42	86.4000
262.79	88.1000
263.16	89.7000
263.53	87.8000
263.90	88.7000
264.28	89.2000
264.65	91.6000
265.02	89.4000
265.39	91.5000
265.76	90.7000
266.13	93.2000
266.50	91.8000
266.87	92.4000
267.24	92.3000
267.61	91.0000
267.98	91.3000
268.35	92.8000
268.72	93.4000
269.09	93.5000
269.46	92.7000
269.84	94.3000
270.21	94.9000
270.58	93.7000
270.95	94.7000
271.32	95.1000
271.69	95.6000
272.06	94.5000
272.43	96.6000
272.80	95.6000
273.17	96.7000
273.54	95.2000
273.91	96.0000
274.28	97.5000
274.65	97.8000
275.02	96.0000
275.39	98.0000
275.76	97.6000
276.13	97.5000
276.50	97.9000
276.87	98.8000
277.24	97.9000
277.61	97.7000
277.98	98.2000
278.35	98.1000
278.72	99.3000
279.09	98.4000
279.46	99.3000
279.83	98.8000
280.20	98.4000
280.57	100.0000
280.94	99.6000
281.31	98.6000
281.67	100.2000
282.04	101.6000
282.41	101.1000
282.78	99.4000
283.15	102.2000
283.52	103.3000
283.89	102.8000
284.26	100.4000
284.63	101.9000
285.00	102.8000
285.37	103.4000
285.74	103.4000
286.11	104.7000
286.48	104.3000
286.85	104.8000
287.21	103.1000
287.58	105.3000
287.95	105.1000
288.32	105.6000
288.69	105.5000
289.06	107.9000
289.43	107.1000
289.80	107.0000
290.17	107.2000
290.54	104.9000
290.90	107.1000
291.27	107.7000
291.64	108.1000
292.01	106.7000
292.38	107.9000
292.75	108.4000
293.12	107.6000
293.48	107.3000
293.85	107.6000
294.22	109.2000
294.59	111.3000
294.96	107.7000
295.33	108.3000
295.70	109.0000
296.06	106.2000
296.43	108.6000
296.80	108.6000
297.17	110.3000
297.54	110.8000
297.91	109.2000
298.27	111.1000
298.64	114.2000
299.01	109.4000
299.38	112.7000
299.75	110.7000
300.11	113.6000
300.48	111.4000
300.85	113.9000
301.22	112.3000
301.59	111.6000
301.95	112.2000
302.32	112.4000
302.69	110.7000
303.06	112.5000
303.43	113.1000
303.79	113.5000
304.16	115.5000
304.53	115.6000
304.90	114.2000
305.26	117.8000
305.63	116.4000
306.00	116.5000
306.37	116.2000
306.73	116.1000
307.10	117.5000
307.47	116.5000
307.84	115.7000
308.20	118.2000
308.57	116.2000
308.94	117.7000
309.31	117.4000
309.67	117.7000
310.04	117.8000
310.41	118.5000
310.77	119.1000
311.14	116.5000
311.51	117.0000
311.88	120.0000
312.24	119.7000
312.61	118.0000
312.98	118.2000
313.34	119.9000
313.71	121.6000
314.08	121.5000
314.44	123.4000
314.81	119.6000
315.18	121.4000
315.55	122.2000
315.91	120.3000
316.28	122.1000
316.65	120.7000
317.01	121.0000
317.38	123.3000
317.75	119.7000
318.11	122.9000
318.48	121.2000
318.84	122.1000
319.21	122.0000
319.58	123.0000
319.94	124.3000
320.31	124.3000
320.68	123.6000
321.04	126.9000
321.41	126.2000
321.78	126.7000
322.14	125.9000
322.51	127.6000
322.87	126.7000
323.24	127.0000
323.61	126.4000
323.97	125.7000
324.34	126.6000
324.70	127.2000
325.07	125.7000
325.44	128.6000
325.80	129.4000
326.17	128.2000
326.53	129.8000
326.90	128.7000
327.27	130.2000
327.63	129.9000
328.00	131.7000
328.36	131.5000
328.73	134.2000
329.09	129.5000
329.46	132.0000
329.83	132.8000
330.19	131.0000
330.56	132.7000
330.92	133.4000
331.29	132.5000
331.65	136.0000
332.02	132.7000
332.38	134.0000
332.75	133.8000
333.11	136.7000
333.48	137.6000
333.84	135.8000
334.21	141.0000
334.58	139.2000
334.94	135.7000
335.31	139.0000
335.67	137.1000
336.04	139.4000
336.40	136.6000
336.77	138.8000
337.13	138.6000
337.50	138.6000
337.86	141.7000
338.22	143.0000
338.59	140.8000
338.95	141.2000
339.32	142.1000
339.68	141.3000
340.05	140.6000
340.41	142.9000
340.78	142.3000
341.14	141.1000
341.51	144.6000
341.87	145.8000
342.24	148.4000
342.60	147.0000
342.96	150.1000
343.33	150.4000
343.69	150.1000
344.06	150.8000
344.42	153.0000
344.79	150.9000
345.15	154.3000
345.51	155.5000
345.88	153.5000
346.24	155.6000
346.61	156.6000
346.97	157.3000
347.34	158.0000
347.70	159.9000
348.06	159.8000
348.43	163.4000
348.79	162.2000
349.16	162.5000
349.52	163.5000
349.88	164.3000
350.25	166.1000
350.61	165.5000
350.97	166.4000
351.34	164.4000
351.70	171.6000
352.07	167.1000
352.43	167.4000
352.79	170.2000
353.16	172.4000
353.52	170.9000
353.88	170.9000
354.25	175.1000
354.61	174.0000
354.97	174.0000
355.34	177.8000
355.70	175.9000
356.06	177.8000
356.43	182.5000
356.79	179.5000
357.15	183.9000
357.52	180.4000
357.88	182.0000
358.24	187.0000
358.60	184.9000
358.97	186.6000
359.33	187.6000
359.69	188.4000
360.06	192.7000
360.42	190.3000
360.78	195.9000
361.14	196.6000
361.51	196.4000
361.87	200.0000
362.23	202.1000
362.60	202.5000
362.96	203.8000
363.32	202.6000
363.68	207.0000
364.05	209.2000
364.41	210.6000
364.77	215.8000
365.13	213.4000
365.50	216.6000
365.86	222.7000
366.22	224.8000
366.58	222.0000
366.95	226.0000
367.31	222.2000
367.67	230.3000
368.03	226.3000
368.39	233.0000
368.76	232.2000
369.12	226.9000
369.48	233.0000
369.84	231.5000
370.20	240.3000
370.57	237.8000
370.93	239.9000
371.29	236.5000
371.65	243.2000
372.01	242.1000
372.38	241.0000
372.74	247.8000
373.10	239.3000
373.46	249.4000
373.82	249.9000
374.18	248.5000
374.55	249.7000
374.91	253.4000
375.27	259.8000
375.63	256.0000
375.99	251.8000
376.35	262.9000
376.71	258.0000
377.08	264.6000
377.44	269.3000
377.80	284.6000
378.16	275.7000
378.52	283.7000
378.88	287.2000
379.24	286.0000
379.60	291.5000
379.97	300.0000
380.33	299.2000
380.69	293.6000
381.05	297.3000
381.41	310.9000
381.77	299.1000
382.13	306.7000
382.49	302.3000
382.85	299.2000
383.21	315.7000
383.57	292.7000
383.94	319.7000
384.30	318.1000
384.66	315.0000
385.02	299.0000
385.38	312.0000
385.74	308.9000
386.10	317.8000
386.46	336.2000
386.82	327.3000
387.18	338.7000
387.54	337.5000
387.90	328.7000
388.26	345.3000
388.62	341.4000
388.98	325.2000
389.34	336.1000
389.70	338.2000
390.06	308.9000
390.42	320.6000
390.78	351.6000
391.14	369.4000
391.50	359.6000
391.86	374.8000
392.22	383.6000
392.58	377.0000
392.94	332.7000
393.30	350.9000
393.66	357.9000
394.02	367.3000
394.38	325.6000
394.74	349.4000
395.10	351.3000
395.46	364.3000
395.82	366.1000
396.18	349.9000
396.54	394.0000
396.90	403.6000
397.26	395.3000
397.62	385.3000
397.98	414.2000
398.34	374.4000
398.70	378.8000
399.05	343.7000
399.41	351.0000
399.77	358.4000
400.13	376.2000
400.49	387.0000
400.85	380.9000
401.21	359.2000
401.57	396.1000
401.93	372.4000
402.29	366.4000
402.65	372.2000
403.00	391.9000
403.36	393.3000
403.72	381.9000
404.08	433.6000
404.44	391.3000
404.80	408.0000
405.16	406.5000
405.52	401.9000
405.87	412.3000
406.23	404.8000
406.59	360.0000
406.95	386.8000
407.31	394.7000
407.67	397.4000
408.03	402.5000
408.38	412.0000
408.74	441.5000
409.10	441.4000
409.46	401.5000
409.82	416.1000
410.17	408.6000
410.53	396.0000
410.89	407.9000
411.25	371.2000
411.61	397.5000
411.97	427.2000
412.32	426.7000
412.68	435.9000
413.04	399.5000
413.40	368.3000
413.75	392.3000
414.11	394.3000
414.47	383.8000
414.83	439.1000
415.19	403.8000
415.54	376.6000
415.90	424.8000
416.26	414.9000
416.62	417.9000
416.97	377.2000
417.33	427.8000
417.69	425.5000
418.05	410.5000
418.40	395.1000
418.76	392.6000
419.12	434.6000
419.48	445.5000
419.83	477.9000
420.19	429.7000
420.55	435.7000
420.90	497.3000
421.26	470.8000
421.62	423.8000
421.98	466.6000
422.33	490.3000
422.69	502.7000
423.05	476.0000
423.40	417.0000
423.76	408.6000
424.12	446.2000
424.47	447.6000
424.83	414.8000
425.19	425.1000
425.54	430.1000
425.90	463.3000
426.26	478.0000
426.61	490.7000
426.97	391.8000
427.33	458.0000
427.68	447.7000
428.04	513.3000
428.40	517.0000
428.75	544.9000
429.11	476.8000
429.47	560.4000
429.82	548.0000
430.18	503.7000
430.53	480.8000
430.89	483.7000
431.25	462.5000
431.60	478.0000
431.96	463.8000
432.31	464.9000
432.67	507.5000
433.03	545.2000
433.38	488.9000
433.74	498.1000
434.09	500.5000
434.45	487.4000
434.81	469.3000
435.16	505.5000
435.52	459.8000
435.87	452.8000
436.23	451.4000
436.58	451.6000
436.94	480.3000
437.30	506.5000
437.65	516.2000
438.01	514.3000
438.36	479.9000
438.72	459.9000
439.07	447.5000
439.43	474.9000
439.78	514.8000
440.14	566.0000
440.49	496.9000
440.85	516.6000
441.20	536.3000
441.56	519.8000
441.91	559.2000
442.27	509.7000
442.62	515.3000
442.98	534.0000
443.33	516.6000
443.69	531.5000
444.04	511.4000
444.40	477.0000
444.75	529.3000
445.11	563.2000
445.46	573.7000
445.82	558.0000
446.17	516.0000
446.53	542.6000
446.88	598.9000
447.23	492.6000
447.59	497.1000
447.94	502.4000
448.30	522.2000
448.65	512.5000
449.01	543.3000
449.36	544.4000
449.72	566.3000
450.07	592.1000
450.42	550.0000
450.78	525.6000
451.13	557.0000
451.49	523.1000
451.84	517.5000
452.19	493.1000
452.55	509.1000
452.90	522.3000
453.26	578.6000
453.61	586.4000
453.96	483.4000
454.32	551.1000
454.67	528.7000
455.02	478.6000
455.38	510.1000
455.73	513.6000
456.09	575.8000
456.44	574.6000
456.79	577.2000
457.15	553.7000
457.50	547.2000
457.85	544.3000
458.21	565.0000
458.56	551.8000
458.91	536.1000
459.27	503.0000
459.62	531.4000
459.97	541.8000
460.32	557.2000
460.68	529.0000
461.03	502.2000
461.38	517.8000
461.74	570.3000
462.09	548.4000
462.44	527.2000
462.80	550.3000
463.15	553.7000
463.50	549.4000
463.85	577.4000
464.21	598.2000
464.56	622.3000
464.91	557.1000
465.26	552.1000
465.62	568.0000
465.97	592.8000
466.32	576.8000
466.67	580.9000
467.03	564.4000
467.38	566.1000
467.73	563.5000
468.08	582.7000
468.44	587.6000
468.79	565.4000
469.14	534.8000
469.49	558.3000
469.85	562.4000
470.20	613.9000
470.55	623.2000
470.90	623.2000
471.25	572.4000
471.61	616.6000
471.96	616.4000
472.31	654.0000
472.66	655.0000
473.01	662.8000
473.36	678.7000
473.72	681.5000
474.07	693.0000
474.42	691.6000
474.77	702.0000
475.12	713.2000
475.47	719.2000
475.83	721.2000
476.18	711.7000
476.53	703.5000
476.88	748.5000
477.23	750.3000
477.58	737.0000
477.93	743.7000
478.28	743.2000
478.64	762.9000
478.99	783.6000
479.34	800.2000
479.69	811.0000
480.04	818.3000
480.39	818.7000
480.74	804.1000
481.09	853.7000
481.44	850.8000
481.79	835.7000
482.15	847.4000
482.50	864.5000
482.85	861.1000
483.20	911.1000
483.55	926.8000
483.90	966.3000
484.25	1135.6000
484.60	1266.9000
484.95	1354.1000
485.30	1290.7000
485.65	1149.9000
486.00	1100.3000
486.35	992.1000
486.70	950.6000
487.05	960.8000
487.40	945.6000
487.75	942.1000
488.10	943.0000
488.45	925.7000
488.80	939.7000
489.15	954.9000
489.50	954.5000
489.85	959.0000
490.20	949.1000
490.55	963.6000
490.90	960.3000
491.25	964.0000
491.60	947.7000
491.95	945.2000
492.30	959.7000
492.65	971.9000
493.00	965.6000
493.35	967.1000
493.70	968.7000
494.05	968.2000
494.40	982.8000
494.75	997.2000
495.10	1008.7000
495.45	1016.1000
495.80	1011.4000
496.15	996.4000
496.50	969.9000
496.84	970.3000
497.19	974.8000
497.54	989.9000
497.89	992.6000
498.24	991.6000
498.59	1005.0000
498.94	987.7000
499.29	988.3000
499.64	991.9000
499.99	1000.5000
500.33	1013.7000
500.68	1019.4000
501.03	1027.2000
501.38	1018.6000
501.73	1027.1000
502.08	1029.4000
502.43	1027.3000
502.77	1029.3000
503.12	1019.0000
503.47	1014.5000
503.82	1025.3000
504.17	1026.2000
504.52	1035.5000
504.86	1024.4000
505.21	1036.0000
505.56	1030.0000
505.91	1019.3000
506.26	1019.6000
506.61	1032.2000
506.95	1041.2000
507.30	1035.5000
507.65	1041.9000
508.00	1035.0000
508.35	1028.2000
508.69	1036.0000
509.04	1041.8000
509.39	1038.8000
509.74	1039.9000
510.08	1042.9000
510.43	1048.4000
510.78	1042.5000
511.13	1041.5000
511.47	1050.6000
511.82	1059.4000
512.17	1048.9000
512.52	1061.7000
512.86	1064.2000
513.21	1059.7000
513.56	1058.7000
513.91	1057.1000
514.25	1052.0000
514.60	1058.2000
514.95	1058.9000
515.30	1061.0000
515.64	1058.5000
515.99	1073.3000
516.34	1069.6000
516.68	1074.7000
517.03	1067.6000
517.38	1074.6000
517.72	1096.9000
518.07	1084.6000
518.42	1087.5000
518.76	1090.6000
519.11	1088.2000
519.46	1087.0000
519.80	1073.2000
520.15	1082.7000
520.50	1093.6000
520.84	1089.4000
521.19	1085.1000
521.54	1094.1000
521.88	1076.5000
522.23	1099.0000
522.58	1096.3000
522.92	1102.6000
523.27	1099.7000
523.61	1101.3000
523.96	1102.5000
524.31	1110.3000
524.65	1110.4000
525.00	1108.2000
525.34	1088.6000
525.69	1099.4000
526.04	1114.9000
526.38	1115.8000
526.73	1108.0000
527.07	1121.7000
527.42	1120.3000
527.76	1133.3000
528.11	1137.2000
528.46	1123.3000
528.80	1125.5000
529.15	1118.9000
529.49	1109.3000
529.84	1127.2000
530.18	1124.4000
530.53	1134.5000
530.87	1131.6000
531.22	1126.3000
531.56	1131.5000
531.91	1144.8000
532.25	1149.5000
532.60	1154.4000
532.94	1152.2000
533.29	1151.7000
533.63	1152.8000
533.98	1150.4000
534.32	1157.4000
534.67	1163.5000
535.01	1162.3000
535.36	1135.1000
535.70	1147.4000
536.05	1143.4000
536.39	1160.9000
536.74	1146.6000
537.08	1147.5000
537.43	1152.6000
537.77	1161.0000
538.12	1174.3000
538.46	1169.8000
538.80	1171.0000
539.15	1152.3000
539.49	1173.1000
539.84	1181.9000
540.18	1178.3000
540.53	1168.8000
540.87	1176.4000
541.21	1192.2000
541.56	1188.4000
541.90	1180.5000
542.25	1171.3000
542.59	1168.0000
542.93	1189.2000
543.28	1184.1000
543.62	1193.6000
543.97	1195.2000
544.31	1192.3000
544.65	1175.7000
545.00	1185.4000
545.34	1188.6000
545.68	1190.5000
546.03	1186.0000
546.37	1223.5000
546.71	1238.7000
547.06	1238.6000
547.40	1224.8000
547.74	1224.3000
548.09	1206.6000
548.43	1189.1000
548.77	1187.2000
549.12	1185.8000
549.46	1181.0000
549.80	1186.3000
550.15	1192.5000
550.49	1199.0000
550.83	1209.3000
551.17	1226.4000
551.52	1221.5000
551.86	1222.3000
552.20	1215.6000
552.55	1227.0000
552.89	1220.7000
553.23	1218.0000
553.57	1224.8000
553.92	1221.8000
554.26	1236.5000
554.60	1234.4000
554.94	1243.3000
555.29	1244.1000
555.63	1233.7000
555.97	1231.6000
556.31	1236.1000
556.66	1239.8000
557.00	1225.5000
557.34	1227.4000
557.68	1230.0000
558.02	1228.9000
558.37	1241.7000
558.71	1247.9000
559.05	1257.2000
559.39	1273.2000
559.73	1282.5000
560.08	1276.4000
560.42	1276.6000
560.76	1268.8000
561.10	1255.2000
561.44	1253.4000
561.78	1261.1000
562.13	1270.0000
562.47	1262.6000
562.81	1284.3000
563.15	1278.7000
563.49	1282.4000
563.83	1283.8000
564.17	1277.4000
564.52	1275.1000
564.86	1279.2000
565.20	1275.7000
565.54	1279.8000
565.88	1294.5000
566.22	1307.6000
566.56	1309.7000
566.90	1330.5000
567.24	1351.9000
567.59	1365.9000
567.93	1400.4000
568.27	1426.2000
568.61	1452.7000
568.95	1454.2000
569.29	1470.7000
569.63	1507.8000
569.97	1524.3000
570.31	1524.4000
570.65	1546.8000
570.99	1549.4000
571.33	1530.9000
571.67	1516.4000
572.01	1536.5000
572.35	1585.6000
572.69	1612.0000
573.03	1612.7000
573.37	1649.2000
573.71	1654.0000
574.05	1634.0000
574.39	1607.7000
574.73	1606.8000
575.07	1597.2000
575.41	1617.2000
575.75	1624.8000
576.09	1691.5000
576.43	1743.1000
576.77	1791.6000
577.11	1779.9000
577.45	1729.4000
577.79	1665.8000
578.13	1656.4000
578.47	1635.1000
578.81	1643.2000
579.15	1618.3000
579.49	1648.8000
579.83	1757.3000
580.17	1852.8000
580.51	1934.0000
580.85	1946.8000
581.19	1856.4000
581.53	1766.5000
581.87	1676.4000
582.20	1592.4000
582.54	1552.1000
582.88	1533.8000
583.22	1561.1000
583.56	1618.2000
583.90	1684.1000
584.24	1727.2000
584.58	1697.0000
584.92	1656.3000
585.25	1614.9000
585.59	1591.2000
585.93	1604.7000
586.27	1635.1000
586.61	1612.1000
586.95	1618.7000
587.29	1593.9000
587.62	1552.8000
587.96	1520.0000
588.30	1483.7000
588.64	1460.1000
588.98	1457.4000
589.31	1440.2000
589.65	1420.9000
589.99	1393.4000
590.33	1406.4000
590.67	1399.5000
591.01	1431.9000
591.34	1491.8000
591.68	1556.9000
