OOIBase32 Version 1.0.0.8 Data File
++++++++++++++++++++++++++++++++++++
Date: Monday, January 14, 1980, 01:24:48
User: Valued Ocean Optics Customer
Spectrometer Serial Number: Unknown
Spectrometer Channel: Master
Integration Time (msec): 3
Spectra Averaged: 10
Boxcar Smoothing: 0
Correct for Electrical Dark: Disabled
Time Normalized: Disabled
Dual-beam Reference: Disabled
Reference Channel: Master
>>>>>Begin Spectral Data<<<<<
179.00	0.0000
179.38	0.0000
179.75	86.1000
180.13	86.4000
180.51	88.0000
180.88	88.1000
181.26	86.0000
181.64	87.9000
182.02	88.0000
182.39	86.6000
182.77	86.5000
183.15	87.0000
183.52	87.0000
183.90	87.6000
184.28	87.1000
184.65	87.3000
185.03	86.6000
185.41	87.1000
185.78	85.8000
186.16	87.5000
186.53	86.7000
186.91	86.4000
187.29	86.4000
187.66	86.2000
188.04	85.7000
188.42	88.5000
188.79	87.6000
189.17	88.2000
189.55	86.8000
189.92	87.0000
190.30	87.6000
190.67	87.1000
191.05	87.3000
191.43	88.6000
191.80	89.2000
192.18	87.8000
192.56	87.7000
192.93	87.9000
193.31	87.3000
193.68	88.2000
194.06	87.1000
194.44	89.2000
194.81	87.9000
195.19	87.6000
195.56	87.7000
195.94	87.3000
196.32	89.0000
196.69	87.2000
197.07	86.6000
197.44	87.4000
197.82	86.5000
198.19	88.4000
198.57	88.9000
198.95	87.8000
199.32	88.0000
199.70	87.0000
200.07	88.4000
200.45	89.0000
200.82	88.5000
201.20	86.9000
201.57	87.2000
201.95	87.2000
202.33	88.0000
202.70	89.0000
203.08	88.4000
203.45	87.4000
203.83	87.9000
204.20	87.9000
204.58	89.1000
204.95	87.8000
205.33	88.2000
205.70	87.7000
206.08	86.4000
206.45	87.4000
206.83	87.1000
207.20	88.0000
207.58	88.3000
207.95	88.8000
208.33	87.4000
208.70	88.3000
209.08	89.2000
209.45	88.0000
209.83	89.7000
210.20	87.9000
210.58	89.3000
210.95	88.5000
211.33	88.3000
211.70	87.9000
212.08	88.0000
212.45	89.5000
212.83	88.2000
213.20	88.1000
213.58	87.3000
213.95	88.4000
214.33	89.3000
214.70	88.3000
215.07	89.1000
215.45	88.7000
215.82	88.0000
216.20	88.8000
216.57	87.5000
216.95	88.6000
217.32	88.4000
217.70	88.7000
218.07	87.5000
218.44	88.6000
218.82	88.5000
219.19	89.1000
219.57	88.8000
219.94	88.5000
220.32	87.9000
220.69	89.1000
221.06	87.0000
221.44	88.6000
221.81	89.5000
222.19	88.7000
222.56	88.2000
222.93	89.3000
223.31	88.3000
223.68	88.7000
224.06	89.5000
224.43	88.9000
224.80	89.8000
225.18	88.1000
225.55	89.1000
225.92	88.8000
226.30	89.0000
226.67	89.3000
227.05	89.3000
227.42	87.8000
227.79	89.0000
228.17	87.9000
228.54	90.4000
228.91	89.0000
229.29	88.8000
229.66	87.9000
230.03	88.1000
230.41	88.6000
230.78	88.5000
231.15	89.1000
231.53	88.4000
231.90	89.5000
232.27	88.4000
232.65	89.3000
233.02	87.6000
233.39	89.5000
233.77	88.3000
234.14	87.5000
234.51	87.7000
234.89	89.2000
235.26	89.6000
235.63	88.8000
236.01	88.1000
236.38	88.8000
236.75	90.4000
237.12	90.5000
237.50	88.1000
237.87	87.9000
238.24	88.5000
238.62	88.5000
238.99	88.7000
239.36	88.9000
239.73	88.9000
240.11	89.1000
240.48	89.0000
240.85	88.8000
241.23	87.8000
241.60	87.8000
241.97	87.3000
242.34	89.9000
242.72	88.2000
243.09	87.5000
243.46	87.8000
243.83	88.7000
244.21	87.2000
244.58	88.7000
244.95	88.5000
245.32	87.5000
245.70	89.1000
246.07	89.3000
246.44	88.0000
246.81	89.4000
247.18	87.7000
247.56	89.1000
247.93	88.1000
248.30	87.8000
248.67	88.3000
249.04	88.6000
249.42	89.4000
249.79	90.0000
250.16	88.5000
250.53	88.8000
250.90	88.2000
251.28	88.4000
251.65	87.8000
252.02	88.7000
252.39	87.5000
252.76	88.2000
253.14	87.0000
253.51	88.9000
253.88	88.7000
254.25	88.1000
254.62	88.6000
254.99	89.1000
255.37	88.2000
255.74	88.0000
256.11	89.4000
256.48	89.1000
256.85	89.1000
257.22	90.0000
257.59	88.8000
257.97	89.1000
258.34	89.6000
258.71	90.3000
259.08	90.2000
259.45	90.3000
259.82	91.6000
260.19	90.7000
260.56	91.7000
260.94	91.9000
261.31	92.2000
261.68	92.6000
262.05	93.5000
262.42	92.8000
262.79	93.7000
263.16	91.9000
263.53	93.3000
263.90	92.3000
264.28	94.5000
264.65	96.2000
265.02	98.5000
265.39	96.3000
265.76	96.9000
266.13	97.5000
266.50	99.0000
266.87	99.4000
267.24	98.6000
267.61	99.6000
267.98	98.8000
268.35	101.8000
268.72	102.9000
269.09	102.8000
269.46	101.5000
269.84	101.8000
270.21	101.6000
270.58	102.9000
270.95	104.9000
271.32	102.6000
271.69	106.5000
272.06	105.4000
272.43	105.2000
272.80	105.1000
273.17	105.5000
273.54	106.6000
273.91	106.1000
274.28	105.7000
274.65	106.3000
275.02	106.5000
275.39	106.2000
275.76	105.4000
276.13	105.0000
276.50	108.7000
276.87	108.8000
277.24	108.5000
277.61	110.1000
277.98	109.1000
278.35	107.7000
278.72	108.6000
279.09	107.3000
279.46	110.7000
279.83	108.9000
280.20	107.6000
280.57	109.8000
280.94	110.7000
281.31	110.4000
281.67	109.4000
282.04	111.0000
282.41	111.7000
282.78	111.1000
283.15	112.9000
283.52	114.3000
283.89	114.3000
284.26	112.6000
284.63	113.9000
285.00	115.0000
285.37	115.3000
285.74	116.0000
286.11	114.2000
286.48	115.8000
286.85	116.0000
287.21	116.6000
287.58	114.3000
287.95	115.4000
288.32	114.7000
288.69	118.4000
289.06	117.9000
289.43	117.9000
289.80	118.4000
290.17	117.7000
290.54	118.1000
290.90	119.3000
291.27	118.0000
291.64	117.5000
292.01	117.7000
292.38	118.3000
292.75	117.8000
293.12	117.3000
293.48	121.0000
293.85	119.5000
294.22	120.4000
294.59	120.7000
294.96	118.3000
295.33	119.2000
295.70	118.3000
296.06	117.5000
296.43	118.6000
296.80	116.8000
297.17	119.1000
297.54	117.4000
297.91	119.4000
298.27	121.0000
298.64	122.0000
299.01	120.0000
299.38	120.1000
299.75	121.1000
300.11	119.3000
300.48	119.6000
300.85	122.8000
301.22	122.5000
301.59	121.9000
301.95	121.4000
302.32	120.9000
302.69	118.3000
303.06	121.7000
303.43	123.1000
303.79	121.2000
304.16	122.8000
304.53	123.9000
304.90	123.6000
305.26	125.2000
305.63	124.2000
306.00	123.4000
306.37	122.2000
306.73	120.5000
307.10	123.8000
307.47	125.8000
307.84	124.2000
308.20	124.3000
308.57	124.5000
308.94	123.2000
309.31	123.5000
309.67	124.0000
310.04	127.7000
310.41	124.4000
310.77	122.8000
311.14	121.6000
311.51	123.4000
311.88	124.0000
312.24	123.4000
312.61	122.7000
312.98	125.2000
313.34	124.8000
313.71	127.4000
314.08	126.3000
314.44	127.3000
314.81	126.4000
315.18	124.4000
315.55	125.8000
315.91	126.8000
316.28	126.6000
316.65	126.0000
317.01	128.8000
317.38	127.0000
317.75	126.4000
318.11	125.7000
318.48	126.3000
318.84	126.7000
319.21	130.3000
319.58	127.2000
319.94	128.2000
320.31	128.4000
320.68	127.7000
321.04	129.8000
321.41	131.2000
321.78	126.9000
322.14	130.4000
322.51	129.6000
322.87	130.6000
323.24	132.2000
323.61	128.7000
323.97	129.5000
324.34	130.2000
324.70	129.4000
325.07	128.5000
325.44	129.7000
325.80	131.2000
326.17	131.4000
326.53	132.2000
326.90	130.1000
327.27	133.4000
327.63	133.4000
328.00	133.2000
328.36	133.0000
328.73	134.2000
329.09	133.7000
329.46	135.4000
329.83	134.5000
330.19	132.3000
330.56	133.6000
330.92	133.8000
331.29	132.7000
331.65	135.5000
332.02	134.7000
332.38	135.4000
332.75	137.2000
333.11	135.8000
333.48	137.3000
333.84	139.1000
334.21	139.5000
334.58	137.8000
334.94	136.0000
335.31	137.3000
335.67	139.1000
336.04	140.3000
336.40	138.6000
336.77	137.9000
337.13	140.7000
337.50	137.3000
337.86	139.1000
338.22	142.5000
338.59	142.2000
338.95	141.5000
339.32	142.2000
339.68	140.9000
340.05	141.0000
340.41	141.2000
340.78	142.6000
341.14	141.4000
341.51	142.5000
341.87	143.4000
342.24	145.1000
342.60	146.1000
342.96	146.7000
343.33	145.7000
343.69	144.3000
344.06	148.6000
344.42	149.5000
344.79	150.6000
345.15	152.1000
345.51	150.9000
345.88	153.9000
346.24	151.6000
346.61	153.2000
346.97	154.6000
347.34	153.5000
347.70	157.2000
348.06	154.9000
348.43	158.1000
348.79	157.6000
349.16	159.4000
349.52	161.0000
349.88	161.0000
350.25	159.6000
350.61	160.2000
350.97	162.8000
351.34	162.8000
351.70	164.9000
352.07	163.6000
352.43	165.2000
352.79	163.8000
353.16	166.0000
353.52	166.7000
353.88	168.7000
354.25	167.4000
354.61	167.7000
354.97	170.0000
355.34	171.5000
355.70	171.6000
356.06	169.9000
356.43	175.1000
356.79	173.6000
357.15	174.9000
357.52	176.2000
357.88	174.5000
358.24	178.6000
358.60	180.3000
358.97	178.7000
359.33	181.2000
359.69	182.2000
360.06	184.3000
360.42	184.8000
360.78	186.2000
361.14	189.7000
361.51	189.5000
361.87	192.0000
362.23	196.0000
362.60	193.3000
362.96	194.7000
363.32	195.3000
363.68	200.3000
364.05	199.6000
364.41	200.7000
364.77	206.9000
365.13	207.3000
365.50	205.9000
365.86	212.1000
366.22	214.1000
366.58	211.4000
366.95	215.0000
367.31	210.2000
367.67	216.9000
368.03	213.3000
368.39	219.9000
368.76	219.6000
369.12	215.3000
369.48	219.6000
369.84	216.2000
370.20	224.1000
370.57	222.3000
370.93	223.2000
371.29	220.7000
371.65	227.1000
372.01	223.5000
372.38	223.6000
372.74	228.6000
373.10	222.7000
373.46	229.8000
373.82	229.0000
374.18	229.6000
374.55	229.7000
374.91	232.1000
375.27	240.0000
375.63	234.4000
375.99	230.7000
376.35	236.1000
376.71	232.7000
377.08	237.1000
377.44	241.1000
377.80	254.0000
378.16	247.6000
378.52	250.5000
378.88	254.9000
379.24	252.1000
379.60	256.7000
379.97	263.9000
380.33	263.4000
380.69	255.4000
381.05	259.3000
381.41	270.9000
381.77	262.4000
382.13	264.9000
382.49	261.8000
382.85	258.4000
383.21	271.5000
383.57	253.0000
383.94	272.6000
384.30	272.8000
384.66	268.5000
385.02	257.8000
385.38	270.5000
385.74	263.2000
386.10	270.5000
386.46	285.7000
386.82	276.1000
387.18	284.8000
387.54	283.6000
387.90	277.3000
388.26	286.2000
388.62	284.1000
388.98	273.8000
389.34	275.0000
389.70	278.9000
390.06	257.0000
390.42	264.0000
390.78	288.7000
391.14	301.2000
391.50	295.0000
391.86	305.1000
392.22	311.2000
392.58	306.5000
392.94	270.3000
393.30	283.1000
393.66	289.7000
394.02	296.2000
394.38	264.4000
394.74	281.9000
395.10	284.5000
395.46	292.7000
395.82	291.2000
396.18	283.5000
396.54	313.8000
396.90	321.7000
397.26	309.0000
397.62	305.6000
397.98	330.1000
398.34	294.8000
398.70	299.9000
399.05	273.1000
399.41	274.6000
399.77	281.6000
400.13	293.9000
400.49	299.7000
400.85	300.2000
401.21	280.7000
401.57	305.2000
401.93	288.9000
402.29	284.3000
402.65	287.7000
403.00	301.1000
403.36	301.5000
403.72	299.2000
404.08	330.4000
404.44	302.7000
404.80	312.0000
405.16	314.3000
405.52	308.2000
405.87	311.7000
406.23	309.6000
406.59	280.3000
406.95	299.6000
407.31	300.5000
407.67	303.4000
408.03	307.5000
408.38	310.1000
408.74	330.0000
409.10	332.6000
409.46	306.3000
409.82	312.9000
410.17	309.1000
410.53	300.2000
410.89	307.3000
411.25	279.9000
411.61	302.6000
411.97	317.3000
412.32	315.2000
412.68	322.9000
413.04	297.8000
413.40	277.7000
413.75	291.1000
414.11	290.8000
414.47	289.8000
414.83	322.7000
415.19	298.6000
415.54	281.9000
415.90	312.0000
416.26	304.9000
416.62	308.4000
416.97	280.5000
417.33	313.5000
417.69	312.0000
418.05	303.3000
418.40	290.2000
418.76	289.5000
419.12	318.3000
419.48	321.5000
419.83	344.0000
420.19	313.0000
420.55	316.0000
420.90	354.7000
421.26	334.2000
421.62	304.1000
421.98	333.1000
422.33	347.3000
422.69	355.7000
423.05	337.6000
423.40	299.9000
423.76	295.9000
424.12	320.2000
424.47	320.0000
424.83	300.5000
425.19	302.0000
425.54	308.5000
425.90	328.1000
426.26	334.7000
426.61	344.9000
426.97	279.2000
427.33	325.7000
427.68	314.7000
428.04	358.9000
428.40	359.3000
428.75	378.9000
429.11	334.9000
429.47	385.3000
429.82	380.6000
430.18	351.7000
430.53	336.4000
430.89	335.1000
431.25	322.1000
431.60	330.3000
431.96	320.5000
432.31	321.4000
432.67	351.1000
433.03	371.3000
433.38	337.2000
433.74	343.3000
434.09	341.8000
434.45	337.2000
434.81	324.0000
435.16	347.0000
435.52	320.0000
435.87	314.7000
436.23	313.4000
436.58	314.2000
436.94	328.8000
437.30	344.1000
437.65	350.9000
438.01	354.6000
438.36	327.3000
438.72	317.2000
439.07	308.1000
439.43	326.9000
439.78	350.7000
440.14	382.4000
440.49	337.2000
440.85	348.8000
441.20	364.2000
441.56	348.1000
441.91	371.5000
442.27	343.7000
442.62	350.5000
442.98	359.2000
443.33	350.6000
443.69	352.2000
444.04	346.2000
444.40	320.2000
444.75	355.4000
445.11	370.0000
445.46	379.4000
445.82	369.8000
446.17	344.6000
446.53	358.7000
446.88	393.2000
447.23	331.1000
447.59	331.5000
447.94	340.4000
448.30	344.9000
448.65	339.4000
449.01	358.3000
449.36	357.6000
449.72	370.3000
450.07	383.1000
450.42	364.8000
450.78	349.3000
451.13	366.0000
451.49	344.4000
451.84	343.9000
452.19	327.9000
452.55	332.3000
452.90	340.7000
453.26	373.8000
453.61	380.3000
453.96	319.5000
454.32	360.2000
454.67	345.6000
455.02	318.7000
455.38	336.4000
455.73	336.6000
456.09	369.7000
456.44	371.4000
456.79	372.0000
457.15	360.0000
457.50	350.2000
457.85	352.7000
458.21	366.5000
458.56	358.3000
458.91	344.9000
459.27	323.2000
459.62	342.2000
459.97	350.2000
460.32	361.9000
460.68	342.0000
461.03	322.2000
461.38	334.5000
461.74	359.5000
462.09	353.6000
462.44	341.4000
462.80	355.8000
463.15	353.1000
463.50	350.8000
463.85	366.9000
464.21	380.7000
464.56	392.5000
464.91	351.4000
465.26	349.3000
465.62	359.9000
465.97	375.3000
466.32	367.2000
466.67	364.4000
467.03	358.0000
467.38	354.7000
467.73	359.7000
468.08	367.7000
468.44	369.7000
468.79	356.5000
469.14	341.7000
469.49	355.7000
469.85	357.6000
470.20	384.3000
470.55	388.1000
470.90	387.9000
471.25	361.7000
471.61	384.2000
471.96	385.4000
472.31	407.7000
472.66	407.5000
473.01	412.9000
473.36	419.6000
473.72	419.0000
474.07	426.8000
474.42	428.1000
474.77	431.8000
475.12	435.2000
475.47	438.7000
475.83	438.7000
476.18	433.6000
476.53	426.1000
476.88	455.7000
477.23	455.9000
477.58	450.1000
477.93	450.9000
478.28	450.5000
478.64	464.5000
478.99	472.3000
479.34	480.9000
479.69	489.1000
480.04	492.9000
480.39	490.6000
480.74	480.4000
481.09	509.2000
481.44	501.1000
481.79	497.6000
482.15	503.5000
482.50	507.8000
482.85	506.6000
483.20	533.2000
483.55	542.2000
483.90	561.8000
484.25	662.4000
484.60	731.1000
484.95	784.1000
485.30	738.3000
485.65	664.4000
486.00	625.9000
486.35	579.6000
486.70	553.1000
487.05	558.9000
487.40	547.6000
487.75	549.5000
488.10	549.5000
488.45	543.1000
488.80	547.8000
489.15	553.8000
489.50	555.8000
489.85	560.9000
490.20	551.3000
490.55	560.0000
490.90	554.3000
491.25	558.8000
491.60	547.8000
491.95	548.9000
492.30	553.6000
492.65	565.7000
493.00	560.1000
493.35	559.1000
493.70	560.0000
494.05	558.5000
494.40	565.5000
494.75	578.8000
495.10	579.5000
495.45	580.8000
495.80	583.7000
496.15	569.2000
496.50	558.9000
496.84	557.9000
497.19	559.6000
497.54	566.6000
497.89	571.0000
498.24	572.8000
498.59	579.3000
498.94	574.8000
499.29	567.7000
499.64	568.2000
499.99	577.1000
500.33	583.7000
500.68	581.3000
501.03	583.9000
501.38	581.5000
501.73	585.3000
502.08	582.2000
502.43	584.7000
502.77	583.0000
503.12	579.8000
503.47	574.3000
503.82	582.7000
504.17	579.1000
504.52	586.6000
504.86	584.1000
505.21	586.3000
505.56	581.9000
505.91	579.8000
506.26	576.4000
506.61	580.4000
506.95	583.1000
507.30	580.8000
507.65	590.7000
508.00	584.7000
508.35	583.8000
508.69	584.8000
509.04	587.9000
509.39	579.2000
509.74	583.4000
510.08	584.3000
510.43	593.2000
510.78	587.4000
511.13	587.4000
511.47	590.1000
511.82	589.4000
512.17	590.0000
512.52	590.0000
512.86	594.6000
513.21	592.5000
513.56	588.3000
513.91	590.7000
514.25	584.6000
514.60	588.7000
514.95	592.4000
515.30	592.2000
515.64	595.9000
515.99	605.2000
516.34	597.9000
516.68	594.8000
517.03	597.8000
517.38	599.2000
517.72	607.7000
518.07	606.0000
518.42	603.6000
518.76	605.6000
519.11	596.8000
519.46	600.5000
519.80	596.6000
520.15	600.9000
520.50	603.3000
520.84	600.9000
521.19	605.7000
521.54	604.8000
521.88	596.9000
522.23	604.0000
522.58	605.9000
522.92	607.5000
523.27	608.4000
523.61	608.1000
523.96	608.0000
524.31	614.6000
524.65	612.4000
525.00	610.7000
525.34	604.1000
525.69	605.7000
526.04	608.8000
526.38	615.4000
526.73	610.4000
527.07	613.2000
527.42	616.8000
527.76	620.3000
528.11	629.5000
528.46	618.9000
528.80	617.9000
529.15	612.0000
529.49	608.8000
529.84	611.0000
530.18	610.6000
530.53	617.4000
530.87	616.4000
531.22	611.2000
531.56	616.9000
531.91	622.0000
532.25	623.6000
532.60	628.2000
532.94	629.8000
533.29	625.7000
533.63	626.6000
533.98	621.0000
534.32	627.8000
534.67	628.5000
535.01	627.0000
535.36	613.7000
535.70	620.7000
536.05	619.4000
536.39	624.9000
536.74	619.7000
537.08	623.0000
537.43	623.6000
537.77	631.1000
538.12	636.5000
538.46	631.8000
538.80	629.9000
539.15	620.6000
539.49	634.2000
539.84	638.8000
540.18	634.2000
540.53	630.1000
540.87	629.5000
541.21	640.8000
541.56	637.5000
541.90	634.9000
542.25	633.9000
542.59	633.0000
542.93	643.0000
543.28	637.5000
543.62	639.7000
543.97	636.3000
544.31	639.2000
544.65	634.7000
545.00	634.3000
545.34	635.9000
545.68	636.0000
546.03	637.6000
546.37	651.1000
546.71	658.9000
547.06	661.0000
547.40	661.1000
547.74	654.6000
548.09	648.9000
548.43	639.2000
548.77	640.7000
549.12	635.7000
549.46	634.4000
549.80	637.7000
550.15	642.3000
550.49	636.3000
550.83	648.2000
551.17	654.3000
551.52	647.5000
551.86	649.4000
552.20	646.7000
552.55	655.3000
552.89	649.7000
553.23	645.5000
553.57	651.8000
553.92	649.6000
554.26	656.7000
554.60	654.6000
554.94	661.6000
555.29	660.6000
555.63	652.7000
555.97	652.4000
556.31	652.3000
556.66	646.7000
557.00	644.0000
557.34	649.2000
557.68	649.3000
558.02	647.2000
558.37	651.1000
558.71	652.2000
559.05	663.0000
559.39	673.2000
559.73	678.0000
560.08	678.2000
560.42	674.2000
560.76	668.7000
561.10	662.5000
561.44	658.5000
561.78	660.7000
562.13	671.7000
562.47	669.4000
562.81	676.1000
563.15	668.0000
563.49	676.0000
563.83	677.6000
564.17	676.2000
564.52	670.7000
564.86	673.9000
565.20	669.1000
565.54	666.2000
565.88	680.2000
566.22	685.5000
566.56	684.2000
566.90	695.2000
567.24	707.7000
567.59	714.5000
567.93	726.4000
568.27	742.6000
568.61	752.8000
568.95	755.9000
569.29	764.3000
569.63	778.9000
569.97	792.9000
570.31	791.0000
570.65	804.2000
570.99	798.1000
571.33	793.9000
571.67	784.3000
572.01	802.6000
572.35	822.9000
572.69	842.3000
573.03	843.7000
573.37	858.3000
573.71	861.0000
574.05	843.8000
574.39	833.8000
574.73	825.7000
575.07	818.9000
575.41	834.3000
575.75	836.3000
576.09	875.7000
576.43	908.0000
576.77	930.2000
577.11	914.1000
577.45	887.6000
577.79	864.5000
578.13	859.0000
578.47	839.2000
578.81	848.8000
579.15	844.1000
579.49	855.9000
579.83	914.1000
580.17	964.3000
580.51	1001.7000
580.85	1002.3000
581.19	956.1000
581.53	911.0000
581.87	856.8000
582.20	814.6000
582.54	797.3000
582.88	793.3000
583.22	804.6000
583.56	831.1000
583.90	871.0000
584.24	886.4000
584.58	870.8000
584.92	850.7000
585.25	827.4000
585.59	818.3000
585.93	821.4000
586.27	839.5000
586.61	824.4000
586.95	826.0000
587.29	813.4000
587.62	791.5000
587.96	777.0000
588.30	760.8000
588.64	749.8000
588.98	746.5000
589.31	742.4000
589.65	731.0000
589.99	719.0000
590.33	725.0000
590.67	721.7000
591.01	734.0000
591.34	767.6000
591.68	800.5000
592.02	820.3000
592.36	810.2000
592.69	791.0000
593.03	772.3000
593.37	767.8000
593.71	770.2000
594.04	775.8000
594.38	770.5000
594.72	761.1000
595.06	739.5000
595.39	726.3000
595.73	730.5000
596.07	740.8000
596.41	738.9000
