OOIBase32 Version 1.0.0.8 Data File
++++++++++++++++++++++++++++++++++++
Date: Wednesday, January 23, 1980, 02:10:40
User: Valued Ocean Optics Customer
Spectrometer Serial Number: Unknown
Spectrometer Channel: Master
Integration Time (msec): 3
Spectra Averaged: 20
Boxcar Smoothing: 0
Correct for Electrical Dark: Disabled
Time Normalized: Disabled
Dual-beam Reference: Disabled
Reference Channel: Master
>>>>>Begin Spectral Data<<<<<
179.00	0.0000
179.38	0.0000
179.75	66.9000
180.13	67.6000
180.51	68.4000
180.88	68.0000
181.26	68.9500
181.64	69.1500
182.02	68.7500
182.39	69.0000
182.77	68.9000
183.15	68.3500
183.52	69.5500
183.90	68.5500
184.28	68.0000
184.65	68.1500
185.03	67.8000
185.41	69.2000
185.78	67.6000
186.16	68.5500
186.53	68.7000
186.91	68.0500
187.29	68.0000
187.66	68.9000
188.04	68.7000
188.42	71.7500
188.79	71.0000
189.17	71.8000
189.55	70.8500
189.92	71.8000
190.30	72.6000
190.67	72.0000
191.05	72.0000
191.43	72.0000
191.80	71.3500
192.18	71.7000
192.56	71.9000
192.93	72.0500
193.31	72.4000
193.68	72.8000
194.06	72.0500
194.44	70.5500
194.81	70.6500
195.19	71.2000
195.56	72.3000
195.94	73.1000
196.32	72.7500
196.69	71.5500
197.07	72.1500
197.44	72.1500
197.82	71.7000
198.19	71.9500
198.57	72.1000
198.95	72.4500
199.32	72.7500
199.70	71.1500
200.07	72.3500
200.45	71.9000
200.82	72.0000
201.20	72.1000
201.57	71.5000
201.95	71.4000
202.33	72.6500
202.70	71.4500
203.08	72.5000
203.45	72.3000
203.83	73.2500
204.20	72.5000
204.58	72.0500
204.95	71.9000
205.33	71.7500
205.70	73.7500
206.08	72.2500
206.45	72.3000
206.83	71.5000
207.20	71.4500
207.58	72.5500
207.95	71.7000
208.33	72.1000
208.70	72.1500
209.08	72.4500
209.45	71.0000
209.83	72.2000
210.20	72.2500
210.58	72.3500
210.95	71.5500
211.33	72.0500
211.70	73.4000
212.08	72.0000
212.45	71.4000
212.83	71.4000
213.20	72.3000
213.58	73.0000
213.95	72.3000
214.33	71.6500
214.70	72.0000
215.07	71.7500
215.45	72.6000
215.82	73.9000
216.20	71.7000
216.57	72.2000
216.95	70.7500
217.32	71.9500
217.70	73.6500
218.07	71.5500
218.44	72.4000
218.82	72.7500
219.19	72.2000
219.57	72.2500
219.94	71.3500
220.32	72.4000
220.69	72.8500
221.06	72.7500
221.44	72.7500
221.81	72.0000
222.19	73.1500
222.56	72.8000
222.93	72.7000
223.31	72.4500
223.68	72.1000
224.06	72.4000
224.43	72.5000
224.80	71.1000
225.18	72.9000
225.55	73.2500
225.92	72.9500
226.30	72.4500
226.67	72.6500
227.05	72.0500
227.42	72.0000
227.79	72.2000
228.17	71.8000
228.54	72.7000
228.91	72.2000
229.29	72.6500
229.66	72.5500
230.03	73.2000
230.41	71.4000
230.78	72.9500
231.15	73.5500
231.53	72.8500
231.90	72.4000
232.27	72.2000
232.65	73.4000
233.02	71.8500
233.39	72.9000
233.77	73.4000
234.14	72.1000
234.51	71.6500
234.89	72.6500
235.26	73.3000
235.63	72.3500
236.01	73.3500
236.38	72.8000
236.75	72.3000
237.12	72.4000
237.50	72.3000
237.87	72.7500
238.24	72.6500
238.62	72.6000
238.99	73.4000
239.36	72.5500
239.73	73.4000
240.11	72.2500
240.48	71.7500
240.85	73.0500
241.23	73.0000
241.60	71.8500
241.97	72.2000
242.34	71.6500
242.72	72.8500
243.09	72.5500
243.46	72.6000
243.83	72.3500
244.21	72.7500
244.58	72.2000
244.95	72.0000
245.32	73.5500
245.70	72.9000
246.07	71.9000
246.44	72.3500
246.81	73.1000
247.18	71.6500
247.56	73.1500
247.93	72.9000
248.30	72.4500
248.67	72.8000
249.04	73.0000
249.42	73.2500
249.79	73.0000
250.16	73.0000
250.53	72.4000
250.90	72.0000
251.28	72.3500
251.65	72.7000
252.02	72.9000
252.39	73.1500
252.76	73.3000
253.14	72.8500
253.51	72.5000
253.88	72.3500
254.25	73.1500
254.62	73.2000
254.99	73.1000
255.37	74.3500
255.74	73.0000
256.11	73.0000
256.48	74.4000
256.85	73.8000
257.22	74.4500
257.59	72.9000
257.97	74.0500
258.34	74.1500
258.71	72.6000
259.08	72.6500
259.45	72.9500
259.82	73.1000
260.19	72.0500
260.56	72.8000
260.94	73.1500
261.31	73.1000
261.68	71.6500
262.05	74.0000
262.42	73.6000
262.79	73.2500
263.16	73.9500
263.53	72.3500
263.90	73.1500
264.28	73.1500
264.65	74.1500
265.02	73.9500
265.39	74.6000
265.76	72.5500
266.13	73.8000
266.50	73.1500
266.87	73.2000
267.24	73.0500
267.61	73.5000
267.98	72.9500
268.35	72.2500
268.72	73.3000
269.09	73.3000
269.46	72.6500
269.84	72.7000
270.21	73.7500
270.58	74.3000
270.95	73.0000
271.32	72.8500
271.69	72.2500
272.06	73.0500
272.43	73.4500
272.80	73.3000
273.17	72.8500
273.54	74.8000
273.91	72.1000
274.28	72.9500
274.65	73.1500
275.02	73.2500
275.39	73.0500
275.76	72.8500
276.13	73.2000
276.50	73.9500
276.87	74.1000
277.24	72.7500
277.61	73.0000
277.98	72.3000
278.35	73.3000
278.72	72.6000
279.09	73.5500
279.46	73.7000
279.83	73.9000
280.20	73.8500
280.57	72.6500
280.94	72.7000
281.31	73.7000
281.67	73.2500
282.04	73.6500
282.41	73.0000
282.78	73.4500
283.15	73.6500
283.52	73.9000
283.89	74.2500
284.26	73.6000
284.63	72.0500
285.00	71.9000
285.37	73.5000
285.74	74.0000
286.11	73.3000
286.48	73.8500
286.85	73.3500
287.21	72.1500
287.58	72.9000
287.95	73.3500
288.32	74.0500
288.69	73.0500
289.06	73.6500
289.43	73.3000
289.80	73.3500
290.17	73.5000
290.54	73.0500
290.90	73.5000
291.27	74.8500
291.64	73.6500
292.01	74.0500
292.38	73.0500
292.75	73.2000
293.12	73.0000
293.48	73.9500
293.85	74.7000
294.22	74.1000
294.59	73.5500
294.96	73.2000
295.33	73.0500
295.70	73.9000
296.06	73.7000
296.43	73.0000
296.80	73.5000
297.17	73.6500
297.54	73.2500
297.91	73.2500
298.27	74.3500
298.64	74.6000
299.01	73.5500
299.38	74.3500
299.75	73.1000
300.11	73.9000
300.48	73.2000
300.85	74.0000
301.22	73.4000
301.59	73.7000
301.95	74.0000
302.32	73.9000
302.69	74.3000
303.06	74.2500
303.43	74.0000
303.79	73.3000
304.16	73.8500
304.53	74.3000
304.90	74.1500
305.26	73.9000
305.63	72.9500
306.00	74.1000
306.37	74.3000
306.73	74.5500
307.10	73.0500
307.47	73.6500
307.84	73.2500
308.20	73.9500
308.57	74.0500
308.94	74.6500
309.31	74.1000
309.67	72.5000
310.04	72.9000
310.41	73.3000
310.77	74.5000
311.14	75.2000
311.51	72.5000
311.88	73.9500
312.24	73.9500
312.61	73.5500
312.98	73.4000
313.34	73.0500
313.71	73.7000
314.08	74.1500
314.44	74.6000
314.81	74.7000
315.18	74.2000
315.55	73.7000
315.91	74.1000
316.28	73.4000
316.65	74.4500
317.01	73.2500
317.38	73.6500
317.75	73.9500
318.11	74.0000
318.48	73.5500
318.84	72.8000
319.21	74.4500
319.58	73.6500
319.94	73.3500
320.31	73.6000
320.68	74.8000
321.04	73.8500
321.41	74.0000
321.78	74.1000
322.14	74.4500
322.51	74.0000
322.87	75.1000
323.24	74.1000
323.61	72.8000
323.97	75.0500
324.34	74.0000
324.70	74.5500
325.07	74.4500
325.44	73.5000
325.80	73.7000
326.17	73.3000
326.53	75.0500
326.90	74.0000
327.27	75.4500
327.63	74.4500
328.00	73.7500
328.36	74.2000
328.73	74.5000
329.09	74.9500
329.46	74.4500
329.83	73.6500
330.19	74.3500
330.56	75.3000
330.92	74.5000
331.29	73.7000
331.65	75.3500
332.02	74.5000
332.38	74.6000
332.75	75.0500
333.11	74.9000
333.48	74.3500
333.84	74.6000
334.21	75.1500
334.58	74.1500
334.94	73.4500
335.31	74.4500
335.67	73.8500
336.04	75.5500
336.40	74.7000
336.77	73.0000
337.13	75.5500
337.50	74.2000
337.86	75.4000
338.22	74.3000
338.59	74.3000
338.95	75.0500
339.32	74.6500
339.68	75.2500
340.05	74.9000
340.41	74.2500
340.78	73.4000
341.14	75.0500
341.51	75.0000
341.87	74.2500
342.24	75.3000
342.60	74.8500
342.96	74.8500
343.33	74.6500
343.69	75.2000
344.06	75.9000
344.42	73.9500
344.79	74.5500
345.15	75.0000
345.51	75.4500
345.88	75.7500
346.24	75.5500
346.61	75.4000
346.97	74.5000
347.34	74.5000
347.70	74.5000
348.06	74.5000
348.43	74.4500
348.79	74.7500
349.16	75.0000
349.52	75.4500
349.88	75.6500
350.25	76.0000
350.61	75.3000
350.97	74.6500
351.34	75.5000
351.70	75.9500
352.07	75.9000
352.43	76.1500
352.79	74.9000
353.16	75.2500
353.52	75.6500
353.88	75.2500
354.25	75.1500
354.61	74.7500
354.97	75.8000
355.34	74.3000
355.70	76.2000
356.06	75.6500
356.43	75.4000
356.79	76.6000
357.15	75.1500
357.52	76.0000
357.88	76.9000
358.24	77.0500
358.60	77.5500
358.97	76.6500
359.33	77.1000
359.69	76.4000
360.06	76.4000
360.42	76.3500
360.78	76.8000
361.14	76.7000
361.51	76.8000
361.87	76.5000
362.23	77.2000
362.60	77.3500
362.96	77.9500
363.32	77.0000
363.68	78.4500
364.05	77.9000
364.41	76.6000
364.77	78.5500
365.13	78.5500
365.50	79.5000
365.86	78.8000
366.22	78.5000
366.58	80.0000
366.95	79.3500
367.31	79.7500
367.67	79.1000
368.03	80.1000
368.39	81.0500
368.76	79.9500
369.12	79.7000
369.48	79.3000
369.84	80.1000
370.20	80.5000
370.57	81.4500
370.93	81.9000
371.29	82.3500
371.65	81.1500
372.01	82.8000
372.38	82.4500
372.74	82.9000
373.10	82.6500
373.46	83.4000
373.82	82.9500
374.18	82.4000
374.55	85.5000
374.91	85.2000
375.27	85.7500
375.63	85.8000
375.99	86.1000
376.35	86.1000
376.71	85.8000
377.08	86.1000
377.44	87.1500
377.80	88.3500
378.16	87.5000
378.52	87.8500
378.88	89.2500
379.24	89.6500
379.60	89.7500
379.97	90.7000
380.33	91.6000
380.69	91.3500
381.05	91.6500
381.41	94.1500
381.77	93.0000
382.13	93.6000
382.49	94.7000
382.85	94.8000
383.21	95.8000
383.57	96.7000
383.94	96.7000
384.30	97.9500
384.66	98.6500
385.02	99.5500
385.38	100.3000
385.74	99.6500
386.10	100.7500
386.46	101.9000
386.82	103.2500
387.18	102.8000
387.54	103.2500
387.90	104.2500
388.26	106.5000
388.62	107.6000
388.98	107.4500
389.34	108.3000
389.70	107.6500
390.06	105.3000
390.42	107.7500
390.78	111.8500
391.14	113.6500
391.50	113.2500
391.86	115.6000
392.22	116.4000
392.58	114.6500
392.94	112.7500
393.30	116.3000
393.66	118.3000
394.02	119.1000
394.38	116.8500
394.74	121.6500
395.10	121.2000
395.46	125.8500
395.82	125.4500
396.18	123.6000
396.54	126.7500
396.90	130.8500
397.26	128.4500
397.62	129.8500
397.98	134.6500
398.34	131.2000
398.70	131.5000
399.05	129.0000
399.41	129.7000
399.77	135.6500
400.13	139.0000
400.49	138.6000
400.85	144.5500
401.21	137.9500
401.57	147.5000
401.93	144.6500
402.29	144.7000
402.65	145.9500
403.00	151.3000
403.36	154.8000
403.72	151.8000
404.08	159.7500
404.44	151.9000
404.80	155.4000
405.16	162.4500
405.52	166.6000
405.87	168.2500
406.23	171.2500
406.59	160.4000
406.95	163.1500
407.31	166.5500
407.67	167.9500
408.03	167.9500
408.38	174.3500
408.74	181.9500
409.10	183.8000
409.46	174.3500
409.82	183.8500
410.17	180.9500
410.53	179.0500
410.89	183.5500
411.25	173.9500
411.61	182.5000
411.97	190.7000
412.32	190.6500
412.68	195.8500
413.04	191.9500
413.40	177.2500
413.75	186.6500
414.11	193.8000
414.47	194.3000
414.83	203.8000
415.19	200.3500
415.54	193.7500
415.90	204.1500
416.26	201.9500
416.62	208.1500
416.97	197.4500
417.33	209.4500
417.69	209.6500
418.05	207.8000
418.40	201.5500
418.76	210.1000
419.12	221.0500
419.48	215.6000
419.83	226.6000
420.19	207.3000
420.55	212.2000
420.90	232.5000
421.26	219.2500
421.62	218.7000
421.98	233.4500
422.33	239.6500
422.69	239.8000
423.05	246.5000
423.40	226.6500
423.76	220.3000
424.12	241.8500
424.47	242.5500
424.83	239.9000
425.19	240.5000
425.54	236.1500
425.90	249.6000
426.26	258.8500
426.61	259.6000
426.97	230.7000
427.33	256.9500
427.68	255.8500
428.04	269.7000
428.40	281.7000
428.75	289.4000
429.11	263.4500
429.47	292.5500
429.82	284.4500
430.18	288.3000
430.53	276.4500
430.89	279.6500
431.25	287.1000
431.60	294.0500
431.96	289.7500
432.31	286.0500
432.67	307.4500
433.03	307.3500
433.38	298.7000
433.74	310.1000
434.09	301.2000
434.45	292.9500
434.81	293.9000
435.16	312.9500
435.52	295.2500
435.87	290.2000
436.23	292.5500
436.58	301.2500
436.94	318.8500
437.30	314.5500
437.65	335.6000
438.01	321.7500
438.36	327.6500
438.72	326.7500
439.07	318.2500
439.43	322.0500
439.78	342.8000
440.14	359.1500
440.49	332.5500
440.85	338.9000
441.20	350.7000
441.56	346.0000
441.91	374.6500
442.27	350.6000
442.62	352.3000
442.98	357.8500
443.33	351.3000
443.69	359.4500
444.04	350.2500
444.40	343.1500
444.75	377.8500
445.11	377.4000
445.46	389.3000
445.82	386.9500
446.17	364.1000
446.53	382.8500
446.88	420.7000
447.23	361.8000
447.59	364.0000
447.94	361.8500
448.30	394.2000
448.65	380.7000
449.01	399.2000
449.36	402.4500
449.72	434.8000
450.07	447.6000
450.42	432.9000
450.78	418.6000
451.13	436.4500
451.49	423.6000
451.84	404.7000
452.19	410.1500
452.55	439.7000
452.90	438.7000
453.26	464.4000
453.61	482.5000
453.96	412.3500
454.32	459.5500
454.67	461.6000
455.02	431.7000
455.38	450.9500
455.73	450.4500
456.09	485.3000
456.44	490.0500
456.79	474.8500
457.15	478.6500
457.50	454.7000
457.85	476.0000
458.21	467.4500
458.56	495.2500
458.91	482.6500
459.27	459.9000
459.62	471.2500
459.97	475.9000
460.32	491.5500
460.68	493.7000
461.03	491.2500
461.38	509.4500
461.74	552.6000
462.09	532.6500
462.44	514.9000
462.80	506.6000
463.15	509.1000
463.50	517.0500
463.85	552.3000
464.21	530.1500
464.56	564.1500
464.91	530.5500
465.26	543.1000
465.62	538.4500
465.97	573.7500
466.32	569.5500
466.67	573.0500
467.03	581.0500
467.38	588.3500
467.73	597.8500
468.08	608.0500
468.44	617.5000
468.79	618.3000
469.14	583.2000
469.49	617.4000
469.85	638.3000
470.20	691.3000
470.55	684.3000
470.90	688.8000
471.25	663.9000
471.61	683.0000
471.96	695.7500
472.31	712.7500
472.66	715.6000
473.01	734.4000
473.36	754.6500
473.72	739.5500
474.07	769.2500
474.42	777.1500
474.77	777.2500
475.12	800.2000
475.47	823.8500
475.83	826.8500
476.18	824.2500
476.53	822.0500
476.88	856.7500
477.23	872.4500
477.58	860.5000
477.93	883.0000
478.28	875.4000
478.64	896.2000
478.99	919.7500
479.34	931.2000
479.69	951.0500
480.04	971.4000
480.39	977.0500
480.74	967.5000
481.09	1018.0000
481.44	1026.2500
481.79	1017.3000
482.15	1027.5000
482.50	1047.2500
482.85	1051.7000
483.20	1083.6000
483.55	1083.5500
483.90	1105.2000
484.25	1105.1000
484.60	1104.3500
484.95	1133.7000
485.30	1135.1000
485.65	1151.5500
486.00	1165.0500
486.35	1154.1500
486.70	1163.8000
487.05	1202.6500
487.40	1205.0000
487.75	1219.1000
488.10	1229.5500
488.45	1219.7000
488.80	1235.4500
489.15	1258.0500
489.50	1261.8500
489.85	1271.2000
490.20	1270.1500
490.55	1294.3500
490.90	1302.7000
491.25	1310.7000
491.60	1301.3500
491.95	1308.2000
492.30	1329.4000
492.65	1338.6500
493.00	1338.1000
493.35	1343.2500
493.70	1361.0000
494.05	1368.9500
494.40	1387.8000
494.75	1393.2000
495.10	1381.9000
495.45	1395.5500
495.80	1406.6000
496.15	1417.7500
496.50	1408.6500
496.84	1409.5500
497.19	1418.8500
497.54	1440.4500
497.89	1440.0000
498.24	1440.9500
498.59	1465.3500
498.94	1452.3000
499.29	1462.4000
499.64	1468.6000
499.99	1481.9500
500.33	1487.6500
500.68	1488.9000
501.03	1499.7500
501.38	1502.3500
501.73	1525.0000
502.08	1512.7500
502.43	1536.8000
502.77	1543.6500
503.12	1552.1500
503.47	1552.9000
503.82	1569.7500
504.17	1576.8000
504.52	1586.8500
504.86	1590.1500
505.21	1615.1500
505.56	1608.3000
505.91	1617.6000
506.26	1615.3500
506.61	1635.2500
506.95	1642.1000
507.30	1652.6000
507.65	1671.9000
508.00	1667.5500
508.35	1675.0500
508.69	1683.2000
509.04	1700.2500
509.39	1694.8000
509.74	1700.8000
510.08	1715.1500
510.43	1731.9000
510.78	1735.6000
511.13	1743.5000
511.47	1752.4500
511.82	1761.5000
512.17	1755.9000
512.52	1781.0000
512.86	1793.3500
513.21	1803.6500
513.56	1807.7000
513.91	1832.6500
514.25	1832.7500
514.60	1841.0000
514.95	1846.0500
515.30	1856.7000
515.64	1861.8500
515.99	1885.4500
516.34	1894.9500
516.68	1905.0500
517.03	1908.5500
517.38	1911.6500
517.72	1943.3500
518.07	1936.9000
518.42	1945.7500
518.76	1965.9000
519.11	1971.6500
519.46	1985.0000
519.80	1977.2500
520.15	1990.2000
520.50	2006.0500
520.84	2003.2500
521.19	2021.4000
521.54	2026.5000
521.88	2026.1000
522.23	2051.6499
522.58	2047.6500
522.92	2061.5500
523.27	2068.7500
523.61	2074.9500
523.96	2076.2000
524.31	2103.1499
524.65	2111.2500
525.00	2104.5500
525.34	2092.1499
525.69	2101.7500
526.04	2126.7000
526.38	2133.6499
526.73	2133.7500
527.07	2151.7500
527.42	2150.3999
527.76	2163.2500
528.11	2168.3999
528.46	2163.8000
528.80	2173.0000
529.15	2156.1499
529.49	2163.6001
529.84	2172.6499
530.18	2180.2500
530.53	2206.1499
530.87	2199.8501
531.22	2193.9500
531.56	2198.9500
531.91	2209.0500
532.25	2203.4500
532.60	2208.4500
532.94	2220.1001
533.29	2219.4500
533.63	2211.7000
533.98	2215.8501
534.32	2224.8501
534.67	2248.1001
535.01	2257.2500
535.36	2244.6001
535.70	2267.1001
536.05	2271.7500
536.39	2290.3501
536.74	2255.3999
537.08	2244.2500
537.43	2243.7000
537.77	2272.2500
538.12	2297.5000
538.46	2293.9500
538.80	2309.4500
539.15	2288.6499
539.49	2307.3000
539.84	2332.7000
540.18	2325.5500
540.53	2324.5000
540.87	2315.5500
541.21	2338.9500
541.56	2334.1001
541.90	2350.3501
542.25	2337.6001
542.59	2336.6001
542.93	2366.1499
543.28	2347.8501
543.62	2373.3501
543.97	2369.1499
544.31	2373.2000
544.65	2380.8999
545.00	2388.6001
545.34	2401.7500
545.68	2401.6001
546.03	2398.4500
546.37	2414.6499
546.71	2414.3000
547.06	2424.2500
547.40	2431.2000
547.74	2460.5500
548.09	2445.3000
548.43	2451.0000
548.77	2458.1499
549.12	2449.8501
549.46	2454.2500
549.80	2473.3501
550.15	2489.0500
550.49	2485.3999
550.83	2493.8000
551.17	2507.8501
551.52	2507.4500
551.86	2503.2000
552.20	2509.1499
552.55	2535.5000
552.89	2538.2000
553.23	2545.1499
553.57	2559.1499
553.92	2546.2000
554.26	2569.4500
554.60	2559.0000
554.94	2565.5000
555.29	2581.5500
555.63	2591.7000
555.97	2600.7500
556.31	2595.2000
556.66	2611.3999
557.00	2601.8501
557.34	2620.8501
557.68	2638.1499
558.02	2638.5000
558.37	2644.4500
558.71	2649.6001
559.05	2649.8999
559.39	2657.6499
559.73	2680.3999
560.08	2671.3000
560.42	2678.0000
560.76	2681.8000
561.10	2693.7500
561.44	2684.2500
561.78	2706.5000
562.13	2714.9500
562.47	2701.6001
562.81	2724.6001
563.15	2723.7500
563.49	2726.2500
563.83	2746.1499
564.17	2742.2500
564.52	2745.1001
564.86	2758.6001
565.20	2754.1001
565.54	2753.8999
565.88	2755.2000
566.22	2770.2500
566.56	2760.7000
566.90	2781.5500
567.24	2785.2000
567.59	2776.4500
567.93	2779.6001
568.27	2797.1499
568.61	2814.0500
568.95	2796.8501
569.29	2795.7500
569.63	2829.0500
569.97	2818.5500
570.31	2777.1001
570.65	2798.4500
570.99	2821.6001
571.33	2828.0500
571.67	2815.1499
572.01	2808.6001
572.35	2829.3501
572.69	2832.6499
573.03	2845.8999
573.37	2836.9500
573.71	2830.8501
574.05	2820.3000
574.39	2824.9500
574.73	2842.3501
575.07	2829.3501
575.41	2835.2500
575.75	2842.0500
576.09	2868.9500
576.43	2849.3999
576.77	2854.7500
577.11	2842.5500
577.45	2848.0500
577.79	2835.3000
578.13	2858.9500
578.47	2826.5500
578.81	2835.9500
579.15	2842.7500
579.49	2880.7000
579.83	2871.2000
580.17	2874.1499
580.51	2864.6499
580.85	2875.9500
581.19	2868.0500
581.53	2852.3501
581.87	2867.1499
582.20	2871.1001
582.54	2870.7000
582.88	2862.9500
583.22	2856.4500
583.56	2844.8501
583.90	2878.3000
584.24	2868.1499
584.58	2870.7000
584.92	2875.5500
585.25	2876.9500
585.59	2866.4500
585.93	2888.7500
586.27	2903.2500
586.61	2868.7500
586.95	2896.3999
587.29	2902.9500
587.62	2878.5000
587.96	2894.6499
588.30	2898.5500
588.64	2883.6499
588.98	2893.0000
589.31	2910.5000
589.65	2892.0500
589.99	2877.1499
590.33	2897.6001
590.67	2906.4500
591.01	2911.0500
591.34	2917.3501
591.68	2915.0000
592.02	2923.3000
592.36	2917.6499
592.69	2910.7500
593.03	2920.0500
593.37	2929.8999
593.71	2920.8501
594.04	2924.6001
594.38	2921.7500
594.72	2938.7000
595.06	2928.6499
595.39	2928.0000
595.73	2944.7500
596.07	2964.8501
