OOIBase32 Version 1.0.0.8 Data File
++++++++++++++++++++++++++++++++++++
Date: Wednesday, January 23, 1980, 02:14:10
User: Valued Ocean Optics Customer
Spectrometer Serial Number: Unknown
Spectrometer Channel: Master
Integration Time (msec): 3
Spectra Averaged: 20
Boxcar Smoothing: 0
Correct for Electrical Dark: Disabled
Time Normalized: Disabled
Dual-beam Reference: Disabled
Reference Channel: Master
>>>>>Begin Spectral Data<<<<<
179.00	0.0000
179.38	0.0000
179.75	67.3500
180.13	66.3000
180.51	67.4500
180.88	67.8000
181.26	68.7500
181.64	69.0500
182.02	68.2000
182.39	67.8500
182.77	68.5000
183.15	68.3000
183.52	68.1500
183.90	68.4000
184.28	67.9000
184.65	67.0500
185.03	66.4500
185.41	67.1000
185.78	68.4000
186.16	67.5500
186.53	66.8500
186.91	68.0500
187.29	68.1500
187.66	68.0000
188.04	69.2000
188.42	71.4000
188.79	71.6000
189.17	71.7000
189.55	71.4500
189.92	71.8000
190.30	71.8500
190.67	72.6000
191.05	70.3500
191.43	71.9000
191.80	71.8500
192.18	70.9000
192.56	71.4000
192.93	72.2000
193.31	72.7000
193.68	73.5000
194.06	71.5000
194.44	72.8000
194.81	72.9000
195.19	72.0500
195.56	72.7000
195.94	73.4500
196.32	71.6500
196.69	73.1000
197.07	72.4500
197.44	72.0500
197.82	72.7000
198.19	72.4000
198.57	72.1500
198.95	72.5500
199.32	71.1000
199.70	71.3000
200.07	71.8500
200.45	72.1000
200.82	72.5500
201.20	71.9000
201.57	72.8000
201.95	72.4000
202.33	72.4000
202.70	72.9000
203.08	73.0500
203.45	73.5000
203.83	73.1000
204.20	71.7000
204.58	72.3500
204.95	71.3500
205.33	72.1000
205.70	71.9500
206.08	72.5500
206.45	72.0000
206.83	71.9000
207.20	73.1500
207.58	71.9000
207.95	72.3500
208.33	72.0000
208.70	73.2500
209.08	71.9500
209.45	71.9500
209.83	72.6500
210.20	72.2500
210.58	72.1000
210.95	72.5500
211.33	73.0500
211.70	72.6500
212.08	73.0000
212.45	73.4500
212.83	72.4000
213.20	72.8500
213.58	73.7000
213.95	72.1000
214.33	71.6500
214.70	73.0000
215.07	72.4000
215.45	73.3000
215.82	72.7000
216.20	72.1500
216.57	72.4000
216.95	71.8500
217.32	73.2000
217.70	73.1500
218.07	73.3000
218.44	72.7000
218.82	72.2500
219.19	73.0500
219.57	72.4500
219.94	72.4500
220.32	71.8500
220.69	72.5500
221.06	72.1000
221.44	73.0000
221.81	73.2500
222.19	73.5000
222.56	72.9500
222.93	73.1000
223.31	72.9500
223.68	72.5500
224.06	73.3000
224.43	72.6000
224.80	73.1000
225.18	72.4500
225.55	72.4500
225.92	72.6500
226.30	73.0500
226.67	72.6500
227.05	73.0000
227.42	72.5500
227.79	73.1500
228.17	71.8500
228.54	71.8000
228.91	72.9500
229.29	73.5000
229.66	73.0500
230.03	72.9500
230.41	73.0500
230.78	71.7000
231.15	73.5000
231.53	72.7500
231.90	72.8500
232.27	73.0000
232.65	72.9500
233.02	73.9000
233.39	72.9000
233.77	73.3000
234.14	72.4500
234.51	72.6500
234.89	72.8000
235.26	72.4500
235.63	71.7500
236.01	73.3500
236.38	71.3000
236.75	72.0000
237.12	72.9000
237.50	71.8500
237.87	73.6500
238.24	73.3000
238.62	72.9000
238.99	72.7000
239.36	73.4000
239.73	72.8000
240.11	73.5500
240.48	72.6500
240.85	72.7500
241.23	72.8000
241.60	73.1500
241.97	72.5500
242.34	73.2000
242.72	73.6000
243.09	73.3500
243.46	72.7000
243.83	72.5500
244.21	72.5000
244.58	73.2000
244.95	72.8500
245.32	72.2500
245.70	73.3000
246.07	72.9500
246.44	72.9500
246.81	72.0000
247.18	72.9000
247.56	72.7500
247.93	72.8000
248.30	73.6000
248.67	71.6000
249.04	73.5000
249.42	73.0500
249.79	73.5000
250.16	73.3500
250.53	73.2000
250.90	74.7500
251.28	73.3000
251.65	72.8000
252.02	73.0000
252.39	73.9500
252.76	73.8500
253.14	73.1500
253.51	73.1000
253.88	72.5000
254.25	72.5500
254.62	72.7000
254.99	73.2500
255.37	72.8000
255.74	73.2500
256.11	72.6500
256.48	72.8000
256.85	73.4000
257.22	74.6000
257.59	73.4500
257.97	72.9500
258.34	73.8000
258.71	73.5000
259.08	72.8000
259.45	73.9000
259.82	73.3000
260.19	73.4000
260.56	73.8500
260.94	73.2500
261.31	73.3500
261.68	73.9000
262.05	73.5500
262.42	73.5500
262.79	74.4000
263.16	73.9000
263.53	73.7000
263.90	73.8000
264.28	74.4000
264.65	74.4500
265.02	75.3000
265.39	73.7500
265.76	74.3000
266.13	74.1000
266.50	74.2000
266.87	73.4000
267.24	72.5000
267.61	74.4500
267.98	73.5000
268.35	74.4000
268.72	73.9500
269.09	73.7500
269.46	72.6000
269.84	74.3500
270.21	74.9500
270.58	72.9500
270.95	74.1500
271.32	73.6500
271.69	72.9500
272.06	73.1500
272.43	73.4500
272.80	74.1000
273.17	73.2500
273.54	74.0000
273.91	72.6500
274.28	73.9000
274.65	74.6500
275.02	74.1000
275.39	74.9000
275.76	74.0000
276.13	75.1500
276.50	73.8500
276.87	73.8000
277.24	73.2500
277.61	74.2000
277.98	73.8000
278.35	74.3500
278.72	73.6000
279.09	73.6500
279.46	74.0000
279.83	73.7500
280.20	73.9500
280.57	73.3500
280.94	73.5000
281.31	74.0500
281.67	72.8500
282.04	74.0500
282.41	74.0000
282.78	73.8500
283.15	73.2500
283.52	73.5500
283.89	74.4500
284.26	73.7000
284.63	74.2500
285.00	73.3000
285.37	74.4500
285.74	72.6000
286.11	74.6000
286.48	73.6500
286.85	73.2500
287.21	74.1000
287.58	72.9500
287.95	73.8000
288.32	74.6500
288.69	75.1000
289.06	74.1500
289.43	73.2500
289.80	73.5500
290.17	73.7500
290.54	73.7000
290.90	75.0500
291.27	75.0500
291.64	72.8500
292.01	73.7500
292.38	74.2500
292.75	73.5000
293.12	74.0500
293.48	73.8000
293.85	74.3500
294.22	74.6500
294.59	73.8000
294.96	73.6500
295.33	73.5500
295.70	74.6000
296.06	74.5500
296.43	73.5500
296.80	72.9000
297.17	74.5500
297.54	75.2000
297.91	74.9000
298.27	73.9000
298.64	74.1500
299.01	74.5000
299.38	75.8000
299.75	75.1500
300.11	75.2000
300.48	74.6500
300.85	73.6500
301.22	72.9500
301.59	74.1500
301.95	75.3000
302.32	75.3000
302.69	74.1000
303.06	74.6000
303.43	74.3500
303.79	74.6500
304.16	75.3000
304.53	74.7500
304.90	74.9500
305.26	74.3500
305.63	74.0500
306.00	74.1500
306.37	73.8500
306.73	75.3000
307.10	74.3000
307.47	73.5500
307.84	73.8500
308.20	74.3500
308.57	75.3000
308.94	73.8500
309.31	73.1500
309.67	75.0000
310.04	74.5000
310.41	74.4000
310.77	75.0000
311.14	74.6000
311.51	74.0000
311.88	74.2500
312.24	74.7500
312.61	74.1500
312.98	73.8000
313.34	74.4000
313.71	74.4000
314.08	73.7000
314.44	74.4000
314.81	73.7500
315.18	74.7500
315.55	74.5000
315.91	75.0500
316.28	74.3500
316.65	73.6500
317.01	75.0000
317.38	75.2500
317.75	74.6000
318.11	74.7500
318.48	74.2000
318.84	74.6000
319.21	74.6000
319.58	75.3000
319.94	74.8000
320.31	74.9500
320.68	75.0500
321.04	74.5000
321.41	75.7000
321.78	75.6000
322.14	75.2000
322.51	74.9000
322.87	75.1000
323.24	74.0500
323.61	74.1500
323.97	75.6000
324.34	74.2000
324.70	75.0000
325.07	76.1000
325.44	75.3000
325.80	74.2500
326.17	73.9000
326.53	74.0000
326.90	74.9000
327.27	75.1500
327.63	74.1000
328.00	74.7500
328.36	75.4500
328.73	76.1500
329.09	75.3500
329.46	75.3000
329.83	74.7000
330.19	75.6500
330.56	74.4000
330.92	74.5000
331.29	75.9500
331.65	74.5500
332.02	75.0500
332.38	75.1500
332.75	74.2000
333.11	75.2000
333.48	75.4000
333.84	75.2000
334.21	75.1000
334.58	74.4500
334.94	74.2500
335.31	75.0000
335.67	74.1500
336.04	74.4500
336.40	74.8000
336.77	74.9000
337.13	75.1500
337.50	76.0000
337.86	75.4000
338.22	75.4000
338.59	74.6000
338.95	76.2000
339.32	76.0500
339.68	75.8500
340.05	74.5000
340.41	75.4000
340.78	75.9000
341.14	75.5500
341.51	76.0500
341.87	75.6000
342.24	75.6000
342.60	75.2000
342.96	74.5000
343.33	75.6500
343.69	75.7000
344.06	76.1500
344.42	75.1500
344.79	74.6000
345.15	76.0500
345.51	74.9000
345.88	74.8000
346.24	76.5000
346.61	76.1000
346.97	75.2000
347.34	77.2000
347.70	76.0500
348.06	76.5000
348.43	75.8500
348.79	76.1000
349.16	76.1500
349.52	76.2500
349.88	75.8500
350.25	76.4000
350.61	75.7000
350.97	75.9500
351.34	76.3000
351.70	75.9000
352.07	75.1000
352.43	75.8500
352.79	75.8500
353.16	76.4000
353.52	75.3000
353.88	75.9500
354.25	77.1000
354.61	75.9500
354.97	76.8000
355.34	75.7500
355.70	75.8500
356.06	76.4500
356.43	76.8000
356.79	76.7000
357.15	76.3000
357.52	76.2000
357.88	76.0500
358.24	75.8500
358.60	76.4500
358.97	77.1500
359.33	76.2000
359.69	76.2500
360.06	76.2000
360.42	75.5500
360.78	76.9500
361.14	75.9500
361.51	76.9000
361.87	77.9000
362.23	78.0000
362.60	77.0500
362.96	77.5000
363.32	77.3000
363.68	76.5500
364.05	76.8500
364.41	78.0500
364.77	77.1500
365.13	76.8500
365.50	77.7000
365.86	78.3500
366.22	78.4000
366.58	78.5500
366.95	78.8000
367.31	78.8500
367.67	78.2500
368.03	79.2500
368.39	78.7500
368.76	79.5000
369.12	79.7000
369.48	79.5500
369.84	79.7500
370.20	80.3500
370.57	80.2000
370.93	79.7500
371.29	80.9000
371.65	81.1000
372.01	81.1000
372.38	80.7500
372.74	80.7000
373.10	81.4500
373.46	80.5000
373.82	82.2500
374.18	81.8500
374.55	81.8500
374.91	82.2500
375.27	82.5500
375.63	82.8000
375.99	82.6000
376.35	83.1500
376.71	82.4500
377.08	84.1000
377.44	83.9500
377.80	85.3000
378.16	84.2000
378.52	85.3000
378.88	86.3000
379.24	87.0000
379.60	86.5500
379.97	87.5000
380.33	87.5500
380.69	88.6500
381.05	89.8000
381.41	90.1500
381.77	89.9500
382.13	90.7500
382.49	91.2000
382.85	92.5000
383.21	93.0500
383.57	93.8000
383.94	94.1500
384.30	95.1500
384.66	97.0000
385.02	96.1000
385.38	97.0000
385.74	96.4000
386.10	98.6000
386.46	100.0500
386.82	101.3000
387.18	99.1500
387.54	100.5500
387.90	101.7500
388.26	102.8500
388.62	104.4000
388.98	104.4500
389.34	106.4500
389.70	106.4500
390.06	104.5500
390.42	105.7500
390.78	108.5500
391.14	111.7500
391.50	110.6500
391.86	113.1000
392.22	113.1000
392.58	113.8500
392.94	110.6000
393.30	114.3500
393.66	116.2500
394.02	116.5000
394.38	112.8000
394.74	120.0500
395.10	118.9000
395.46	122.6500
395.82	120.7500
396.18	120.5000
396.54	125.4000
396.90	127.7000
397.26	127.0000
397.62	128.5000
397.98	133.0000
398.34	128.2500
398.70	129.1000
399.05	128.4000
399.41	129.1500
399.77	134.7500
400.13	136.4000
400.49	138.1000
400.85	141.9500
401.21	137.5000
401.57	145.8000
401.93	145.0000
402.29	143.7500
402.65	146.0500
403.00	150.9000
403.36	155.0000
403.72	152.1500
404.08	160.2000
404.44	151.3500
404.80	154.5000
405.16	161.4500
405.52	164.7500
405.87	167.3000
406.23	169.4500
406.59	162.8000
406.95	163.3000
407.31	167.8500
407.67	169.5000
408.03	169.5500
408.38	178.0500
408.74	183.2500
409.10	185.8500
409.46	177.1500
409.82	185.3500
410.17	187.7000
410.53	181.1000
410.89	189.0500
411.25	176.4500
411.61	187.9000
411.97	197.0500
412.32	196.3000
412.68	200.8000
413.04	196.6500
413.40	182.4500
413.75	193.3000
414.11	200.4000
414.47	201.6000
414.83	211.3000
415.19	207.0000
415.54	198.0000
415.90	211.0500
416.26	209.8000
416.62	215.6500
416.97	206.9500
417.33	217.9000
417.69	218.0000
418.05	217.9000
418.40	210.9500
418.76	220.7500
419.12	232.7500
419.48	226.7500
419.83	237.7000
420.19	217.6000
420.55	223.9500
420.90	243.3000
421.26	231.2500
421.62	229.3000
421.98	242.9000
422.33	250.8500
422.69	251.9000
423.05	257.1500
423.40	235.7000
423.76	232.2000
424.12	254.7500
424.47	257.1000
424.83	253.4000
425.19	254.5000
425.54	249.7500
425.90	262.6500
426.26	272.2500
426.61	272.3000
426.97	242.9500
427.33	271.7000
427.68	271.1000
428.04	283.7000
428.40	296.8500
428.75	307.0000
429.11	281.0500
429.47	306.4500
429.82	304.8500
430.18	306.5500
430.53	293.3000
430.89	296.5000
431.25	305.5500
431.60	310.1000
431.96	306.1500
432.31	304.9500
432.67	325.1000
433.03	328.3500
433.38	316.0500
433.74	328.8000
434.09	321.7000
434.45	310.5500
434.81	315.0500
435.16	333.2000
435.52	312.7500
435.87	307.7000
436.23	310.7500
436.58	319.3500
436.94	340.4000
437.30	335.3000
437.65	355.2500
438.01	344.5000
438.36	350.6500
438.72	348.3000
439.07	339.8000
439.43	344.3500
439.78	368.3000
440.14	383.7500
440.49	352.8500
440.85	356.8500
441.20	373.5500
441.56	367.2500
441.91	398.8500
442.27	374.4000
442.62	376.0500
442.98	384.9000
443.33	374.7000
443.69	384.9000
444.04	372.7000
444.40	362.0000
444.75	403.3000
445.11	402.4500
445.46	415.2500
445.82	411.2500
446.17	387.9000
446.53	407.7500
446.88	446.1500
447.23	383.2000
447.59	391.3000
447.94	386.0500
448.30	419.0000
448.65	408.1500
449.01	428.9000
449.36	429.2000
449.72	464.4000
450.07	475.7500
450.42	460.6000
450.78	443.5000
451.13	464.1000
451.49	453.1000
451.84	430.4000
452.19	438.5500
452.55	466.7500
452.90	468.8000
453.26	498.6000
453.61	515.3500
453.96	438.7500
454.32	490.7000
454.67	495.5500
455.02	462.8500
455.38	482.6500
455.73	479.9000
456.09	519.5500
456.44	523.7000
456.79	509.4000
457.15	515.8500
457.50	486.5500
457.85	511.0000
458.21	502.9500
458.56	533.2000
458.91	520.2000
459.27	496.9500
459.62	508.2000
459.97	512.3000
460.32	531.7500
460.68	535.4500
461.03	528.7500
461.38	552.8500
461.74	598.8500
462.09	578.4000
462.44	557.7500
462.80	544.0000
463.15	552.4500
463.50	557.7000
463.85	600.2000
464.21	574.7000
464.56	609.2000
464.91	576.6000
465.26	591.9000
465.62	582.6000
465.97	622.6000
466.32	623.2000
466.67	622.8000
467.03	631.4000
467.38	644.9500
467.73	651.0500
468.08	663.8000
468.44	670.1000
468.79	672.2000
469.14	633.8000
469.49	673.9500
469.85	693.6500
470.20	752.8000
470.55	743.7500
470.90	751.4500
471.25	729.4500
471.61	749.6000
471.96	762.3500
472.31	778.6000
472.66	782.6500
473.01	805.9500
473.36	826.7000
473.72	810.9500
474.07	842.5000
474.42	854.8000
474.77	852.7500
475.12	878.5500
475.47	904.9000
475.83	908.7000
476.18	907.2500
476.53	903.1000
476.88	951.8500
477.23	962.1000
477.58	947.9000
477.93	975.6500
478.28	963.9000
478.64	986.4000
478.99	1017.2500
479.34	1028.8000
479.69	1047.4500
480.04	1072.3500
480.39	1077.9000
480.74	1063.6000
481.09	1123.3500
481.44	1126.9000
481.79	1128.3000
482.15	1139.7000
482.50	1157.2500
482.85	1162.3000
483.20	1199.6000
483.55	1200.2000
483.90	1217.0000
484.25	1215.1500
484.60	1221.3500
484.95	1247.7500
485.30	1255.6000
485.65	1275.5500
486.00	1285.3000
486.35	1274.8000
486.70	1288.1000
487.05	1331.8000
487.40	1337.1000
487.75	1352.1000
488.10	1361.0500
488.45	1349.6000
488.80	1365.3500
489.15	1399.8500
489.50	1400.3500
489.85	1413.0500
490.20	1409.2000
490.55	1436.2000
490.90	1443.0000
491.25	1451.6500
491.60	1448.5500
491.95	1457.6000
492.30	1472.2500
492.65	1487.3000
493.00	1491.1500
493.35	1492.2000
493.70	1511.1500
494.05	1520.5500
494.40	1542.0500
494.75	1548.0500
495.10	1538.5500
495.45	1549.7500
495.80	1561.1000
496.15	1577.5000
496.50	1565.2500
496.84	1574.0500
497.19	1582.3000
497.54	1602.0000
497.89	1607.5000
498.24	1605.0000
498.59	1629.4500
498.94	1618.4500
499.29	1628.7500
499.64	1639.6500
499.99	1647.8500
500.33	1657.2500
500.68	1661.6000
501.03	1668.4000
501.38	1679.5500
501.73	1696.4000
502.08	1687.8000
502.43	1710.1500
502.77	1723.2500
503.12	1726.4000
503.47	1732.1000
503.82	1748.6500
504.17	1759.1000
504.52	1772.2000
504.86	1779.7000
505.21	1803.1500
505.56	1797.9000
505.91	1803.2000
506.26	1808.2500
506.61	1832.5000
506.95	1831.4000
507.30	1844.4500
507.65	1865.9500
508.00	1861.1000
508.35	1875.2500
508.69	1877.4500
509.04	1897.5000
509.39	1895.3000
509.74	1900.1000
510.08	1912.9000
510.43	1934.2500
510.78	1941.1500
511.13	1949.6500
511.47	1959.8000
511.82	1972.1000
512.17	1971.7500
512.52	1995.1000
512.86	2009.0000
513.21	2022.1000
513.56	2027.5000
513.91	2051.3000
514.25	2046.4000
514.60	2063.2000
514.95	2078.2000
515.30	2081.9500
515.64	2085.7500
515.99	2120.6001
516.34	2121.3501
516.68	2135.5500
517.03	2136.3000
517.38	2144.3999
517.72	2180.8501
518.07	2170.8000
518.42	2180.9500
518.76	2198.7000
519.11	2207.1499
519.46	2231.0500
519.80	2222.1001
520.15	2236.2000
520.50	2255.1499
520.84	2256.8000
521.19	2270.5500
521.54	2275.5000
521.88	2279.1001
522.23	2307.9500
522.58	2297.2000
522.92	2309.6001
523.27	2331.1499
523.61	2328.7000
523.96	2337.9500
524.31	2369.5000
524.65	2374.2000
525.00	2371.3999
525.34	2353.3999
525.69	2362.2500
526.04	2390.7500
526.38	2397.8000
526.73	2400.8501
527.07	2425.1001
527.42	2422.1001
527.76	2434.2000
528.11	2439.8501
528.46	2441.8000
528.80	2439.8999
529.15	2434.7000
529.49	2438.6499
529.84	2453.5500
530.18	2463.3999
530.53	2483.8000
530.87	2485.2000
531.22	2481.9500
531.56	2484.7500
531.91	2493.3501
532.25	2485.6499
532.60	2489.2500
532.94	2505.6499
533.29	2499.3501
533.63	2497.5500
533.98	2500.3000
534.32	2512.8000
534.67	2533.6499
535.01	2545.3000
535.36	2539.7500
535.70	2560.1499
536.05	2565.5500
536.39	2579.0000
536.74	2549.7000
537.08	2534.1001
537.43	2534.0000
537.77	2565.8000
538.12	2591.1499
538.46	2596.6499
538.80	2610.3999
539.15	2584.8501
539.49	2608.0500
539.84	2628.8999
540.18	2630.0000
540.53	2629.9500
540.87	2624.7500
541.21	2641.8000
541.56	2640.6499
541.90	2657.7000
542.25	2645.1499
542.59	2640.5000
542.93	2676.5500
543.28	2659.3999
543.62	2681.8000
543.97	2681.8501
544.31	2690.7500
544.65	2695.2500
545.00	2711.8000
545.34	2715.8000
545.68	2719.4500
546.03	2714.0000
546.37	2738.2000
546.71	2739.1499
547.06	2751.3000
547.40	2752.4500
547.74	2784.7000
548.09	2771.7500
548.43	2776.2500
548.77	2787.8501
549.12	2783.0500
549.46	2781.8000
549.80	2805.5500
550.15	2817.8999
550.49	2816.2500
550.83	2826.8999
551.17	2841.3501
551.52	2841.5000
551.86	2838.5000
552.20	2853.0000
552.55	2873.7000
552.89	2877.6001
553.23	2888.5500
553.57	2902.2500
553.92	2894.8501
554.26	2923.3000
554.60	2900.6001
554.94	2916.0500
555.29	2934.2000
555.63	2938.8501
555.97	2958.1499
556.31	2950.2500
556.66	2972.3000
557.00	2955.5500
557.34	2982.1001
557.68	2995.9500
558.02	2997.0500
558.37	3009.2500
558.71	3003.7000
559.05	3005.6499
559.39	3020.2000
559.73	3037.4500
560.08	3033.4500
560.42	3049.1499
560.76	3050.9500
561.10	3061.2000
561.44	3046.6499
561.78	3078.9500
562.13	3088.1001
562.47	3071.4500
562.81	3096.5000
563.15	3100.6001
563.49	3100.9500
563.83	3126.3000
564.17	3115.5500
564.52	3122.2000
564.86	3134.3999
565.20	3125.1001
565.54	3135.0000
565.88	3137.3501
566.22	3152.9500
566.56	3141.1001
566.90	3164.0500
567.24	3168.3000
567.59	3161.5000
567.93	3165.5000
568.27	3181.8999
568.61	3200.7000
568.95	3186.5500
569.29	3178.0000
569.63	3220.5500
569.97	3205.9500
570.31	3166.5500
570.65	3193.2500
570.99	3209.3501
571.33	3224.2000
571.67	3202.5500
572.01	3209.6499
572.35	3226.5500
572.69	3232.2000
573.03	3241.8501
573.37	3234.2000
573.71	3229.1001
574.05	3208.9500
574.39	3224.8501
574.73	3249.5500
575.07	3223.3000
575.41	3239.8000
575.75	3243.7500
576.09	3273.5500
576.43	3257.1001
576.77	3252.9500
577.11	3241.6499
577.45	3254.8000
577.79	3237.0500
578.13	3256.5000
578.47	3231.2500
578.81	3240.3999
579.15	3251.3501
579.49	3287.5000
579.83	3277.5000
580.17	3280.6001
580.51	3274.1001
580.85	3277.3501
581.19	3272.4500
581.53	3266.3999
581.87	3268.3501
582.20	3280.3000
582.54	3281.0000
582.88	3275.8501
583.22	3260.8999
583.56	3251.2500
583.90	3287.6499
584.24	3278.0000
584.58	3278.3501
584.92	3301.0500
585.25	3299.0500
585.59	3289.8999
585.93	3302.2500
586.27	3318.8999
586.61	3274.9500
586.95	3312.2500
587.29	3316.5000
587.62	3287.1499
587.96	3311.3000
588.30	3315.8999
588.64	3310.5000
588.98	3310.1001
589.31	3329.5500
589.65	3314.3000
589.99	3300.2500
590.33	3320.7000
590.67	3326.0500
591.01	3327.5000
591.34	3338.6499
591.68	3334.7500
592.02	3346.9500
592.36	3341.2500
592.69	3337.8000
593.03	3346.8000
593.37	3358.5000
593.71	3354.4500
594.04	3348.1001
594.38	3349.1499
594.72	3374.0500
595.06	3359.6499
595.39	3352.0000
595.73	3371.6001
596.07	3398.1001
