OOIBase32 Version 1.0.0.8 Data File
++++++++++++++++++++++++++++++++++++
Date: Wednesday, January 23, 1980, 02:10:40
User: Valued Ocean Optics Customer
Spectrometer Serial Number: Unknown
Spectrometer Channel: Master
Integration Time (msec): 3
Spectra Averaged: 20
Boxcar Smoothing: 0
Correct for Electrical Dark: Disabled
Time Normalized: Disabled
Dual-beam Reference: Disabled
Reference Channel: Master
>>>>>Begin Spectral Data<<<<<
179.00	0.0000
179.38	0.0000
179.75	132.8358
180.13	108.0459
180.51	94.5204
180.88	138.5965
181.26	104.4118
181.64	121.5684
182.02	157.1425
182.39	140.8164
182.77	120.9678
183.15	148.0002
183.52	64.4736
183.90	128.3020
184.28	115.6250
184.65	114.8647
185.03	116.8829
185.41	80.6452
185.78	136.9862
186.16	118.5713
186.53	88.6364
186.91	197.6189
187.29	178.2612
187.66	84.2105
188.04	157.7779
188.42	-27.2730
188.79	-78.9476
189.17	-64.5163
189.55	-77.1428
189.92	-824.9781
190.30	1799.8932
190.67	-45.4546
191.05	-12.9030
191.43	-194.1182
191.80	-275.0010
192.18	-900.0407
192.56	-866.6548
192.93	650.0076
193.31	0.0000
193.68	-169.2301
194.06	274.9986
194.44	2650.0343
194.81	358.3299
195.19	-91.1768
195.56	254.5465
195.94	2.6313
196.32	50.0000
196.69	-192.3095
197.07	-88.2355
197.44	-75.0003
197.82	220.0012
198.19	1300.0229
198.57	1000.0916
198.95	0.0000
199.32	0.0000
199.70	-419.9997
200.07	-366.6624
200.45	-103.4485
200.82	-437.4983
201.20	449.9990
201.57	1699.9847
201.95	-273.3327
202.33	-31.4283
202.70	-123.3337
203.08	-466.6599
203.45	-71.0525
203.83	65.2173
204.20	-121.4276
204.58	-11.3637
204.95	-266.6671
205.33	-67.8569
205.70	-449.9695
206.08	-23.5295
206.45	-126.6663
206.83	-80.9520
207.20	-30.9093
207.58	600.0076
207.95	-824.9819
208.33	-362.5067
208.70	-66.6665
209.08	17.3911
209.45	-330.7687
209.83	-220.0002
210.20	-53.3335
210.58	-55.5555
210.95	0.0000
211.33	-38.4617
211.70	11.5386
212.08	-182.3536
212.45	0.0000
212.83	-81.5786
213.20	-28.5710
213.58	-4.3478
213.95	-111.1119
214.33	-188.8882
214.70	-99.9992
215.07	-24.9998
215.45	-500.0076
215.82	50.0010
216.20	-176.4693
216.57	-128.0005
216.95	-280.0003
217.32	-13.6365
217.70	13.0436
218.07	-2300.0305
218.44	-129.4118
218.82	-74.9995
219.19	-457.1466
219.57	-66.6665
219.94	-369.2301
220.32	-10.9375
220.69	466.6650
221.06	-65.0002
221.44	10.7144
221.81	-700.0000
222.19	-50.0000
222.56	309.0886
222.93	-57.1427
223.31	-440.0024
223.68	-186.6669
224.06	-619.9982
224.43	0.0000
224.80	-89.4742
225.18	14.2857
225.55	-9.6775
225.92	-35.4840
226.30	-336.3675
226.67	-27.0270
227.05	-85.7140
227.42	-188.8882
227.79	-71.4284
228.17	-170.5882
228.54	-333.3299
228.91	-73.3337
229.29	-1699.8932
229.66	3.1252
230.03	-540.0024
230.41	-200.0000
230.78	-22.2227
231.15	-21.0524
231.53	-274.9986
231.90	-64.5163
232.27	-25.7145
232.65	25.8065
233.02	-100.0000
233.39	-47.9999
233.77	-20.8334
234.14	-14.8935
234.51	216.6667
234.89	-156.2509
235.26	-27.7780
235.63	-178.5703
236.01	-9.9998
236.38	-414.2866
236.75	-81.8180
237.12	-82.6083
237.50	-375.0057
237.87	-191.6674
238.24	-83.3335
238.62	-68.9653
238.99	-1000.0916
239.36	-66.6665
239.73	6.8965
240.11	-1075.0172
240.48	-25.9258
240.85	1600.0229
241.23	0.0000
241.60	-93.3334
241.97	-56.0976
242.34	-266.6667
242.72	-80.0003
243.09	4.3481
243.46	-999.9898
243.83	-69.6970
244.21	-17.4999
244.58	-50.0003
244.95	-87.8785
245.32	30.3031
245.70	-330.0003
246.07	-155.9998
246.44	-100.0000
246.81	-58.0645
247.18	-52.3809
247.56	-143.4792
247.93	-3.1247
248.30	-104.0002
248.67	-118.1801
249.04	29.0321
249.42	17.6470
249.79	-16.2790
250.16	9.4340
250.53	-83.7207
250.90	-189.4746
251.28	-45.8332
251.65	-45.4545
252.02	10.0002
252.39	-30.3030
252.76	-5.9998
253.14	-75.8617
253.51	8.2193
253.88	-86.6669
254.25	-371.4208
254.62	0.0000
254.99	-66.6664
255.37	7.1422
255.74	-218.1801
256.11	-22.2224
256.48	4.5457
256.85	24.1383
257.22	53.6584
257.59	-2.5639
257.97	37.5000
258.34	47.6191
258.71	-47.9999
259.08	-42.8571
259.45	-4.1669
259.82	-34.4826
260.19	-24.9998
260.56	-51.8517
260.94	375.0010
261.31	-11.6279
261.68	-67.9999
262.05	25.9258
262.42	7.3171
262.79	357.1444
263.16	36.9564
263.53	-33.9999
263.90	-25.7141
264.28	-2.6313
264.65	23.8095
265.02	-80.0000
265.39	62.7450
265.76	-59.9999
266.13	40.9096
266.50	-57.5755
266.87	-2.5643
267.24	4.7622
267.61	-33.3331
267.98	3.9999
268.35	-1133.3198
268.72	-58.8236
269.09	-70.5882
269.46	-119.9997
269.84	-126.0872
270.21	23.8095
270.58	41.6667
270.95	-66.6671
271.32	411.1136
271.69	-205.5550
272.06	524.9976
272.43	-155.5576
272.80	-6.5215
273.17	-50.0000
273.54	88.5716
273.91	-81.5790
274.28	-900.0407
274.65	2.8573
275.02	-35.4842
275.39	-30.7692
275.76	-178.9484
276.13	9.6154
276.50	-10.0002
276.87	14.8148
277.24	-33.3332
277.61	-55.9998
277.98	-59.0906
278.35	-28.1248
278.72	-233.3333
279.09	31.5790
279.46	-17.8571
279.83	12.0001
280.20	24.4442
280.57	-16.0713
280.94	-22.6418
281.31	23.8095
281.67	5.6604
282.04	24.0002
282.41	-142.8578
282.78	40.6247
283.15	19.5654
283.52	19.0476
283.89	-24.9999
284.26	-17.0731
284.63	-237.4983
285.00	-22.7273
285.37	-35.9998
285.74	42.0289
286.11	-7.4073
286.48	52.9411
286.85	-80.0003
287.21	-78.5716
287.58	-16.0001
287.95	24.6152
288.32	34.2106
288.69	-59.4594
289.06	13.7931
289.43	-149.9990
289.80	-14.0351
290.17	32.3078
290.54	1.8183
290.90	-660.0006
291.27	96.8748
291.64	45.9460
292.01	26.0870
292.38	-52.4998
292.75	-45.0005
293.12	-21.2766
293.48	-21.7391
293.85	96.4284
294.22	32.5001
294.59	18.7502
294.96	-52.9411
295.33	-40.6245
295.70	41.2699
296.06	31.9148
296.43	-1.4494
296.80	-5.0001
297.17	14.0626
297.54	10.9092
297.91	13.8889
298.27	30.1886
298.64	32.7585
299.01	9.2593
299.38	14.2857
299.75	-108.3339
300.11	-15.2173
300.48	-15.9094
300.85	-6.6666
301.22	20.4819
301.59	9.8039
301.95	22.0001
302.32	33.3335
302.69	37.5000
303.06	23.2558
303.43	-4.0002
303.79	15.2779
304.16	6.7567
304.53	5.1285
304.90	25.7143
305.26	4.2858
305.63	-7.8948
306.00	6.5218
306.37	33.3334
306.73	28.5715
307.10	-4.9178
307.47	3.0769
307.84	-78.2609
308.20	22.9507
308.57	-6.9765
308.94	30.7694
309.31	-27.2731
309.67	-92.1567
310.04	-76.4701
310.41	-27.7778
310.77	29.6297
311.14	88.8888
311.51	-28.8135
311.88	0.0000
312.24	-25.0002
312.61	15.6250
312.98	-48.7806
313.34	-120.8334
313.71	10.8107
314.08	37.1796
314.44	30.2326
314.81	34.6938
315.18	46.0316
315.55	-6.9768
315.91	25.7143
316.28	4.2858
316.65	39.3939
317.01	4.2254
317.38	9.8591
317.75	9.2306
318.11	-20.5881
318.48	4.0000
318.84	-65.7897
319.21	0.0000
319.58	6.7798
319.94	-8.6957
320.31	17.4418
320.68	49.0197
321.04	-10.2567
321.41	15.6250
321.78	23.9436
322.14	38.3720
322.51	10.3897
322.87	26.0869
323.24	0.0000
323.61	-47.8258
323.97	39.3940
324.34	19.2308
324.70	45.3489
325.07	32.0987
325.44	-90.0002
325.80	4.7618
326.17	1.5386
326.53	42.3530
326.90	12.0482
327.27	38.0952
327.63	23.3332
328.00	13.5135
328.36	17.4602
328.73	11.8644
329.09	48.4210
329.46	20.6895
329.83	8.0459
330.19	11.6882
330.56	43.8358
330.92	-6.0001
331.29	-16.1766
331.65	25.0000
332.02	12.5000
332.38	16.6666
332.75	31.3434
333.11	27.6596
333.48	3.5294
333.84	20.1835
334.21	42.2536
334.58	-13.2352
334.94	-6.8966
335.31	11.7020
335.67	-23.6110
336.04	37.0371
336.40	17.8217
336.77	-29.1140
337.13	43.9253
337.50	16.1615
337.86	27.2727
338.22	15.1787
338.59	9.5239
338.95	28.7038
339.32	17.0732
339.68	35.2941
340.05	22.1154
340.41	-3.6145
340.78	-5.8252
341.14	14.5631
341.51	26.4706
341.87	0.9616
342.24	27.6786
342.60	17.8571
342.96	28.4615
343.33	11.6072
343.69	19.4029
344.06	27.7778
344.42	6.1538
344.79	-2.1978
345.15	14.4000
345.51	22.4806
345.88	23.0089
346.24	27.2728
346.61	19.8474
346.97	12.5000
347.34	9.7015
347.70	7.1429
348.06	-6.6037
348.43	8.3333
348.79	8.1482
349.16	24.0506
349.52	10.6383
349.88	15.3285
350.25	29.5454
350.61	27.4809
350.97	2.2728
351.34	4.6154
351.70	40.1315
352.07	31.8841
352.43	28.2895
352.79	3.8217
353.16	9.6970
353.52	13.6364
353.88	15.8228
354.25	12.5828
354.61	-9.0164
354.97	14.0741
355.34	2.7778
355.70	20.6060
356.06	19.1257
356.43	15.3061
356.79	36.5000
357.15	5.1948
357.52	21.7143
357.88	31.6666
358.24	23.1579
358.60	38.4211
358.97	24.3243
359.33	20.5128
359.69	24.8889
360.06	10.9948
360.42	16.0804
360.78	20.6278
361.14	20.3463
361.51	18.4314
361.87	26.0162
362.23	19.6078
362.60	27.2340
362.96	35.1351
363.32	22.5108
363.68	25.6302
364.05	15.7658
364.41	8.8462
364.77	30.1158
365.13	27.0993
365.50	34.9650
365.86	28.4281
366.22	34.1818
366.58	34.0580
366.95	28.1879
367.31	30.7958
367.67	23.7342
368.03	33.6538
368.39	35.6688
368.76	32.7433
369.12	30.3621
369.48	28.9190
369.84	29.3578
370.20	29.0909
370.57	36.3636
370.93	31.8681
371.29	36.8957
371.65	28.3784
372.01	37.5610
372.38	33.5038
372.74	33.9241
373.10	33.4135
373.46	38.3495
373.82	32.8704
374.18	31.6279
374.55	45.8525
374.91	40.1747
375.27	41.7040
375.63	41.0753
375.99	44.9275
376.35	43.2773
376.71	38.6892
377.08	42.8571
377.44	44.7217
377.80	48.0216
378.16	44.5652
378.52	42.7574
378.88	45.8182
379.24	43.6187
379.60	43.2956
379.97	44.8382
380.33	46.4939
380.69	47.3101
381.05	46.2555
381.41	50.0000
381.77	48.8856
382.13	47.9050
382.49	48.5526
382.85	47.0356
383.21	48.7021
383.57	52.0368
383.94	49.0123
384.30	52.1197
384.66	50.7638
385.02	55.4455
385.38	53.8025
385.74	51.9906
386.10	50.8215
386.46	49.0722
386.82	53.9419
387.18	53.1961
387.54	51.6260
387.90	55.5783
388.26	54.7431
388.62	57.1561
388.98	56.4797
389.34	55.4520
389.70	53.2153
390.06	53.5323
390.42	57.0335
390.78	57.2457
391.14	57.0332
391.50	59.6975
391.86	58.8091
392.22	59.3533
392.58	57.5637
392.94	59.7198
393.30	59.1740
393.66	60.7527
394.02	58.3142
394.38	59.3354
394.74	62.2741
395.10	61.8155
395.46	61.7007
395.82	63.9747
396.18	62.2238
396.54	62.1172
396.90	64.0026
397.26	63.9947
397.62	64.3774
397.98	64.4932
398.34	65.8031
398.70	64.6984
399.05	65.2291
399.41	66.0105
399.77	67.5892
400.13	67.7120
400.49	66.3963
400.85	68.6478
401.21	67.6822
401.57	70.1923
401.93	67.2747
402.29	70.0950
402.65	68.2606
403.00	71.1066
403.36	70.0776
403.72	71.3405
404.08	71.4286
404.44	71.6805
404.80	71.7445
405.16	71.8099
405.52	72.7233
405.87	73.6312
406.23	74.7400
406.59	72.2274
406.95	73.5158
407.31	74.2895
407.67	74.2908
408.03	74.1280
408.38	72.5071
408.74	73.7466
409.10	74.3085
409.46	74.3012
409.82	75.5266
410.17	74.0670
410.53	76.4419
410.89	75.1060
411.25	75.8679
411.61	74.9137
411.97	75.4500
412.32	75.5667
412.68	75.2917
413.04	77.0373
413.40	77.2294
413.75	75.4556
414.11	76.2059
414.47	75.9383
414.83	75.1374
415.19	76.8272
415.54	78.5118
415.90	76.4783
416.26	77.0088
416.62	76.8714
416.97	76.4014
417.33	76.9011
417.69	77.0141
418.05	77.1577
418.40	77.2066
418.76	75.7099
419.12	76.8086
419.48	75.8288
419.83	75.9855
420.19	75.7238
420.55	75.1299
420.90	77.4370
421.26	76.3733
421.62	76.7777
421.98	77.0822
422.33	78.5074
422.69	77.2205
423.05	77.2614
423.40	77.6102
423.76	77.9407
424.12	76.8640
424.47	77.2236
424.83	76.7442
425.19	76.7779
425.54	77.4098
425.90	77.0777
426.26	77.0476
426.61	76.3256
426.97	77.0741
427.33	75.8870
427.68	75.8296
428.04	77.1314
428.40	76.4805
428.75	77.3004
429.11	75.4505
429.47	78.0769
429.82	76.1017
430.18	76.1981
430.53	76.2180
430.89	76.3871
431.25	76.3707
431.60	76.7751
431.96	76.3200
432.31	75.9687
432.67	77.1202
433.03	75.6138
433.38	76.4832
433.74	76.4139
434.09	76.0844
434.45	76.1057
434.81	75.7872
435.16	76.5824
435.52	75.4497
435.87	76.0954
436.23	75.5302
436.58	76.4832
436.94	76.4578
437.30	76.1695
437.65	77.0702
438.01	76.0272
438.36	75.8537
438.72	74.9352
439.07	75.4761
439.43	76.0525
439.78	75.0122
440.14	76.3810
440.49	75.4555
440.85	76.7284
441.20	76.1380
441.56	76.3088
441.91	76.4724
442.27	75.7463
442.62	75.7313
442.98	74.9529
443.33	75.1087
443.69	75.3190
444.04	76.0100
444.40	76.6412
444.75	76.6355
445.11	75.7653
445.46	75.9198
445.82	75.7452
446.17	75.9464
446.53	76.0837
446.88	76.7059
447.23	76.5237
447.59	74.7329
447.94	75.2678
448.30	75.9106
448.65	75.4436
449.01	75.0671
449.36	75.0842
449.72	75.3243
450.07	76.3125
450.42	75.0288
450.78	76.1387
451.13	75.6757
451.49	75.4033
451.84	75.5954
452.19	74.8288
452.55	75.1861
452.90	75.2050
453.26	75.4746
453.61	75.4056
453.96	75.9211
454.32	75.5987
454.67	74.9444
455.02	75.2117
455.38	75.3345
455.73	75.5023
456.09	75.2270
456.44	75.9200
456.79	74.9803
457.15	75.0530
457.50	75.4563
457.85	76.1137
458.21	75.4074
458.56	75.6979
458.91	75.1775
459.27	75.5916
459.62	75.2891
459.97	76.0644
460.32	75.7556
460.68	74.8742
461.03	75.5211
461.38	75.7948
461.74	75.5025
462.09	74.8595
462.44	75.1612
462.80	75.4025
463.15	75.6452
463.50	75.5114
463.85	75.3162
464.21	75.8597
464.56	76.3111
464.91	75.4518
465.26	75.2995
465.62	75.6917
465.97	75.7573
466.32	74.7257
466.67	75.4060
467.03	75.4143
467.38	75.2359
467.73	75.5694
468.08	75.4534
468.44	75.8188
468.79	75.5245
469.14	75.3393
469.49	75.5227
469.85	75.5795
470.20	75.7992
470.55	75.7316
470.90	75.4783
471.25	74.9347
471.61	74.9491
471.96	75.0275
472.31	75.5737
472.66	75.7757
473.01	75.1604
473.36	75.9840
473.72	75.6741
474.07	75.5973
474.42	75.3194
474.77	75.6582
475.12	75.3044
475.47	75.6497
475.83	75.3811
476.18	75.5540
476.53	75.7584
476.88	74.8452
477.23	75.8988
477.58	75.2345
477.93	75.3923
478.28	75.4802
478.64	75.1993
478.99	75.5657
479.34	75.0248
479.69	75.8295
480.04	75.6927
480.39	75.5297
480.74	75.7982
481.09	75.7737
481.44	76.1464
481.79	75.3471
482.15	75.6343
482.50	75.4175
482.85	75.6287
483.20	75.4723
483.55	75.7568
483.90	75.9402
484.25	75.8776
484.60	75.5067
484.95	75.9154
485.30	75.5874
485.65	75.6101
486.00	75.7981
486.35	75.5276
486.70	75.7837
487.05	75.7682
487.40	75.4974
487.75	75.3840
488.10	75.5179
488.45	75.6678
488.80	75.8176
489.15	75.5935
489.50	75.9577
489.85	75.7439
490.20	75.4423
490.55	75.7558
490.90	75.7514
491.25	75.7457
491.60	75.6145
491.95	75.2800
492.30	76.0393
492.65	75.8428
493.00	75.4118
493.35	75.6536
493.70	75.9107
494.05	75.8799
494.40	75.5883
494.75	75.6034
495.10	75.5429
495.45	75.9375
495.80	75.9054
496.15	75.7205
496.50	75.6903
496.84	75.3866
497.19	75.4854
497.54	75.4635
497.89	75.3415
498.24	75.4144
498.59	75.9331
498.94	75.8123
499.29	75.5425
499.64	75.7373
499.99	75.6770
500.33	75.4707
500.68	75.4263
501.03	75.5233
501.38	75.3572
501.73	75.7396
502.08	75.3672
502.43	75.8982
502.77	75.6695
503.12	75.8337
503.47	75.4968
503.82	75.8268
504.17	75.4538
504.52	75.6582
504.86	75.4040
505.21	75.3820
505.56	75.2785
505.91	75.6404
506.26	75.3662
506.61	75.4497
506.95	75.6255
507.30	75.6122
507.65	75.3969
508.00	75.4333
508.35	75.4554
508.69	75.7549
509.04	75.8521
509.39	75.5106
509.74	75.5824
510.08	75.7010
510.43	75.5734
510.78	75.6230
511.13	75.6033
511.47	75.6750
511.82	75.3499
512.17	75.3257
512.52	75.4614
512.86	75.6231
513.21	75.5190
513.56	75.5695
513.91	75.6589
514.25	75.7851
514.60	75.5546
514.95	75.2017
515.30	75.5583
515.64	75.6040
515.99	75.5321
516.34	75.6289
516.68	75.4432
517.03	75.7096
517.38	75.2171
517.72	75.5804
518.07	75.3205
518.42	75.6002
518.76	75.8425
519.11	75.5943
519.46	75.3940
519.80	75.4149
520.15	75.3321
520.50	75.3294
520.84	75.1884
521.19	75.4847
521.54	75.5391
521.88	75.3543
522.23	75.5416
522.58	75.4961
522.92	75.7254
523.27	75.2849
523.61	75.8856
523.96	75.5606
524.31	75.5053
524.65	75.4451
525.00	75.3400
525.34	75.5487
525.69	75.5528
526.04	75.4537
526.38	75.5499
526.73	75.3716
527.07	75.5179
527.42	75.5962
527.76	75.4659
528.11	75.2595
528.46	75.5215
528.80	75.6052
529.15	75.3187
529.49	75.5375
529.84	75.0781
530.18	75.2467
530.53	75.5876
530.87	75.5272
531.22	75.1979
531.56	75.2137
531.91	75.3708
532.25	75.4025
532.60	75.4249
532.94	75.4299
533.29	75.5833
533.63	75.1414
533.98	75.3791
534.32	75.3975
534.67	75.3907
535.01	75.4873
535.36	75.3096
535.70	75.2448
536.05	75.3747
536.39	75.6981
536.74	75.2172
537.08	75.2084
537.43	75.3596
537.77	75.4033
538.12	75.3412
538.46	75.1361
538.80	75.3866
539.15	75.3478
539.49	75.5983
539.84	75.6609
540.18	75.4223
540.53	75.4478
540.87	75.0947
541.21	75.5069
541.56	75.4106
541.90	75.3676
542.25	75.3250
542.59	75.1290
542.93	75.3930
543.28	75.0339
543.62	75.5950
543.97	75.4105
544.31	75.2620
544.65	75.3769
545.00	75.2070
545.34	75.3770
545.68	75.3274
546.03	75.3414
546.37	75.3403
546.71	75.3110
547.06	75.2700
547.40	75.4558
547.74	75.3553
548.09	75.2386
548.43	75.2328
548.77	75.1598
549.12	75.2318
549.46	75.2568
549.80	75.1152
550.15	75.2031
550.49	75.2080
550.83	75.4707
551.17	75.5548
551.52	75.5021
551.86	75.5279
552.20	74.9517
552.55	75.3480
552.89	75.5521
553.23	75.1186
553.57	75.5104
553.92	75.1734
554.26	75.4041
554.60	75.2719
554.94	75.1426
555.29	75.3425
555.63	75.5426
555.97	75.2079
556.31	75.1919
556.66	75.2723
557.00	75.2422
557.34	75.1682
557.68	75.2830
558.02	75.2305
558.37	75.3413
558.71	75.2628
559.05	75.3164
559.39	75.2404
559.73	75.4300
560.08	75.2118
560.42	75.1332
560.76	75.3590
561.10	75.3218
561.44	75.2582
561.78	75.3458
562.13	75.3090
562.47	75.3227
562.81	75.3527
563.15	75.2146
563.49	75.1957
563.83	75.4276
564.17	75.3576
564.52	75.2981
564.86	75.4554
565.20	75.3344
565.54	75.2314
565.88	75.0937
566.22	75.1290
566.56	75.3138
566.90	75.3530
567.24	75.2063
567.59	75.2930
567.93	75.2154
568.27	75.3066
568.61	75.4335
568.95	75.3510
569.29	75.2145
569.63	75.3742
569.97	75.3050
570.31	75.1947
570.65	75.0193
570.99	75.5013
571.33	75.2512
571.67	75.3956
572.01	75.1813
572.35	75.2162
572.69	75.2565
573.03	75.2513
573.37	75.4380
573.71	75.3767
574.05	75.3342
574.39	75.0480
574.73	75.1646
575.07	75.2279
575.41	75.1865
575.75	74.8456
576.09	75.2953
576.43	75.1362
576.77	75.4291
577.11	75.2497
577.45	75.1107
577.79	74.9845
578.13	75.1451
578.47	75.0949
578.81	75.0377
579.15	75.0085
579.49	75.2278
579.83	75.2003
580.17	75.2659
580.51	75.0115
580.85	75.3658
581.19	75.0727
581.53	75.0170
581.87	75.1170
582.20	75.1349
582.54	75.1500
582.88	74.8493
583.22	75.1441
583.56	74.8412
583.90	74.9943
584.24	75.0642
584.58	75.3290
584.92	74.7967
585.25	74.9415
585.59	74.6810
585.93	75.1638
586.27	75.1712
586.61	75.0241
586.95	75.1214
587.29	75.0790
587.62	75.0463
587.96	75.1364
588.30	75.0510
588.64	74.9519
588.98	75.0613
589.31	75.1540
589.65	74.9323
589.99	74.9587
590.33	74.9176
590.67	75.0481
591.01	75.1160
591.34	75.1805
591.68	75.0689
592.02	75.1324
592.36	75.1941
592.69	75.0356
593.03	74.9940
593.37	75.1126
593.71	74.9635
594.04	75.0554
594.38	75.0438
594.72	74.9648
595.06	74.9620
595.39	75.0975
595.73	75.1964
596.07	75.0759
596.41	75.1744
596.74	74.8824
597.08	75.0813
597.42	74.9434
597.76	75.0494
598.09	75.0747
598.43	74.9126
598.77	75.0063
599.10	75.0633
599.44	75.0397
599.78	75.0873
600.11	75.1399
600.45	75.1119
600.79	74.9497
601.12	74.9719
601.46	75.0110
601.80	74.9960
602.13	74.9306
602.47	74.9564
602.81	75.0502
603.14	74.9698
603.48	74.9612
603.82	74.9989
604.15	74.8881
604.49	75.1058
604.82	74.9128
605.16	74.9784
605.50	74.9097
605.83	75.0695
606.17	74.9876
606.50	74.7277
606.84	75.1569
607.18	74.8726
607.51	74.8184
607.85	74.8859
608.18	74.9794
608.52	74.7978
608.86	74.9604
609.19	75.0871
609.53	74.8610
609.86	75.0745
