OOIBase32 Version 1.0.0.8 Data File
++++++++++++++++++++++++++++++++++++
Date: Wednesday, January 23, 1980, 02:09:27
User: Valued Ocean Optics Customer
Spectrometer Serial Number: Unknown
Spectrometer Channel: Master
Integration Time (msec): 3
Spectra Averaged: 20
Boxcar Smoothing: 0
Correct for Electrical Dark: Disabled
Time Normalized: Disabled
Dual-beam Reference: Disabled
Reference Channel: Master
>>>>>Begin Spectral Data<<<<<
179.00	0.0000
179.38	0.0000
179.75	67.9500
180.13	67.8500
180.51	69.0500
180.88	67.8000
181.26	68.3500
181.64	69.3500
182.02	68.9500
182.39	68.9000
182.77	68.1000
183.15	68.4000
183.52	68.0500
183.90	70.0000
184.28	68.5000
184.65	68.7500
185.03	69.0500
185.41	68.4000
185.78	68.5000
186.16	67.9500
186.53	67.9500
186.91	68.2500
187.29	67.3500
187.66	67.7000
188.04	68.9500
188.42	73.1000
188.79	72.0000
189.17	73.3000
189.55	72.5500
189.92	71.5500
190.30	72.0500
190.67	71.1500
191.05	71.4500
191.43	71.5000
191.80	73.9500
192.18	72.0500
192.56	73.5500
192.93	73.0500
193.31	72.7000
193.68	73.2500
194.06	72.4000
194.44	72.1000
194.81	72.0000
195.19	72.5500
195.56	72.3000
195.94	73.2000
196.32	72.4000
196.69	72.9500
197.07	71.0500
197.44	73.8000
197.82	72.4500
198.19	73.3500
198.57	73.6000
198.95	72.9500
199.32	72.0500
199.70	73.3000
200.07	72.2000
200.45	72.0500
200.82	71.1500
201.20	72.2000
201.57	72.2500
201.95	72.6500
202.33	73.0000
202.70	72.4000
203.08	73.1500
203.45	73.2500
203.83	72.3500
204.20	72.6500
204.58	72.9500
204.95	73.2000
205.33	72.7000
205.70	72.9000
206.08	72.6500
206.45	73.2000
206.83	72.3500
207.20	72.3000
207.58	72.5000
207.95	72.9500
208.33	72.5500
208.70	73.6500
209.08	72.7000
209.45	73.2000
209.83	72.9000
210.20	73.0000
210.58	72.9000
210.95	73.0500
211.33	72.4500
211.70	72.9500
212.08	73.9500
212.45	73.1000
212.83	73.1500
213.20	72.3000
213.58	72.2500
213.95	72.7000
214.33	73.0000
214.70	72.6500
215.07	72.4000
215.45	73.8500
215.82	74.0000
216.20	73.7000
216.57	73.2000
216.95	73.3500
217.32	73.7000
217.70	73.4000
218.07	73.1500
218.44	73.2000
218.82	72.6000
219.19	73.6000
219.57	73.9500
219.94	72.1500
220.32	72.9000
220.69	73.1000
221.06	72.5000
221.44	73.6000
221.81	73.7000
222.19	73.4500
222.56	73.4000
222.93	73.3500
223.31	73.0500
223.68	72.0000
224.06	73.0500
224.43	73.4500
224.80	72.7500
225.18	73.5500
225.55	73.8500
225.92	73.2500
226.30	73.9000
226.67	73.1500
227.05	73.7000
227.42	73.4000
227.79	72.9500
228.17	74.3000
228.54	72.8500
228.91	73.0000
229.29	72.5000
229.66	72.8000
230.03	74.2500
230.41	73.1000
230.78	73.5000
231.15	72.9500
231.53	74.5500
231.90	74.2500
232.27	74.2500
232.65	74.0500
233.02	72.9500
233.39	73.9000
233.77	72.9000
234.14	73.3000
234.51	73.6000
234.89	73.6000
235.26	73.1000
235.63	72.8500
236.01	73.6500
236.38	73.4000
236.75	73.3500
237.12	73.6500
237.50	73.4000
237.87	73.6000
238.24	73.4500
238.62	73.4500
238.99	73.8500
239.36	73.7000
239.73	72.9000
240.11	73.5000
240.48	73.8500
240.85	73.1000
241.23	74.0000
241.60	73.9000
241.97	72.6500
242.34	73.1500
242.72	73.2000
243.09	73.0500
243.46	72.4000
243.83	73.5500
244.21	74.6000
244.58	73.4000
244.95	72.8000
245.32	72.6000
245.70	74.0500
246.07	74.0000
246.44	73.1500
246.81	73.4000
247.18	74.2000
247.56	74.7500
247.93	74.2000
248.30	73.8500
248.67	74.4500
249.04	72.8000
249.42	73.7500
249.79	73.3000
250.16	73.7000
250.53	73.8000
250.90	74.4000
251.28	73.4500
251.65	72.7000
252.02	73.3500
252.39	73.1000
252.76	74.3500
253.14	72.5000
253.51	73.7000
253.88	74.1000
254.25	74.5000
254.62	74.4000
254.99	73.3500
255.37	72.7500
255.74	73.1000
256.11	73.2000
256.48	74.3500
256.85	74.3000
257.22	73.9000
257.59	73.0500
257.97	74.8500
258.34	72.7000
258.71	73.1000
259.08	74.7000
259.45	74.4000
259.82	73.5500
260.19	73.9000
260.56	74.0000
260.94	73.9000
261.31	73.9500
261.68	73.5500
262.05	74.3500
262.42	73.2000
262.79	73.8500
263.16	74.1000
263.53	74.1500
263.90	74.0000
264.28	74.0500
264.65	72.5500
265.02	74.3000
265.39	73.9000
265.76	73.3000
266.13	73.3500
266.50	73.7000
266.87	72.8000
267.24	74.6000
267.61	73.5000
267.98	73.7500
268.35	74.4000
268.72	75.0500
269.09	74.2500
269.46	73.2500
269.84	74.1500
270.21	74.1500
270.58	73.5000
270.95	73.9000
271.32	73.8000
271.69	72.4500
272.06	74.7000
272.43	74.3000
272.80	74.5500
273.17	74.1000
273.54	74.0500
273.91	73.8500
274.28	73.6000
274.65	73.8000
275.02	74.9000
275.39	73.4000
275.76	73.0500
276.13	74.7500
276.50	74.2000
276.87	74.7000
277.24	73.8500
277.61	74.2000
277.98	74.9500
278.35	74.7000
278.72	73.6000
279.09	74.1500
279.46	75.0000
279.83	73.4000
280.20	73.2500
280.57	73.7500
280.94	73.3000
281.31	73.9000
281.67	74.5500
282.04	72.8500
282.41	73.3500
282.78	74.5000
283.15	74.0500
283.52	73.8500
283.89	74.4000
284.26	73.9500
284.63	73.8000
285.00	74.8500
285.37	73.8000
285.74	74.3000
286.11	74.5500
286.48	74.5000
286.85	73.9000
287.21	74.5000
287.58	73.8500
287.95	74.3500
288.32	74.6500
288.69	73.8500
289.06	73.5500
289.43	73.4500
289.80	74.9500
290.17	74.6500
290.54	73.7000
290.90	74.2000
291.27	75.8000
291.64	74.8000
292.01	74.3500
292.38	74.6000
292.75	73.9500
293.12	74.4500
293.48	74.6500
293.85	74.7000
294.22	75.1500
294.59	75.7000
294.96	73.9000
295.33	73.9000
295.70	75.9000
296.06	74.0000
296.43	74.0000
296.80	74.3000
297.17	74.0000
297.54	74.0500
297.91	73.8000
298.27	74.1500
298.64	73.6500
299.01	74.1500
299.38	74.9500
299.75	73.9500
300.11	74.7500
300.48	74.1500
300.85	75.4500
301.22	74.3000
301.59	74.0500
301.95	74.3500
302.32	74.5500
302.69	74.0500
303.06	74.4000
303.43	74.8500
303.79	75.4000
304.16	75.1000
304.53	73.9000
304.90	74.8500
305.26	75.3500
305.63	74.8500
306.00	76.0000
306.37	75.6500
306.73	74.8500
307.10	75.5500
307.47	74.3500
307.84	73.2500
308.20	74.5500
308.57	73.8000
308.94	74.2000
309.31	74.8000
309.67	75.6000
310.04	74.6500
310.41	74.9000
310.77	75.2000
311.14	74.6000
311.51	75.3500
311.88	75.1000
312.24	75.0500
312.61	75.5500
312.98	74.6500
313.34	75.3500
313.71	75.0500
314.08	75.6000
314.44	76.6000
314.81	75.7500
315.18	74.9500
315.55	75.6500
315.91	75.2000
316.28	74.8000
316.65	75.5500
317.01	75.2500
317.38	74.5500
317.75	76.0000
318.11	75.1000
318.48	74.9500
318.84	74.7000
319.21	75.8500
319.58	74.5000
319.94	75.4500
320.31	75.0000
320.68	75.5500
321.04	75.5500
321.41	75.4500
321.78	75.9000
322.14	75.4500
322.51	75.8500
322.87	75.7500
323.24	75.9500
323.61	75.0500
323.97	75.5500
324.34	75.6500
324.70	74.9500
325.07	76.2000
325.44	75.9500
325.80	75.4500
326.17	75.5500
326.53	75.1500
326.90	75.0000
327.27	75.8500
327.63	75.1500
328.00	75.0000
328.36	75.3000
328.73	75.1500
329.09	74.8000
329.46	74.2000
329.83	75.6500
330.19	75.1000
330.56	74.9500
330.92	74.8500
331.29	74.9500
331.65	75.4000
332.02	74.4500
332.38	75.8000
332.75	74.9000
333.11	74.9500
333.48	75.5500
333.84	74.3500
334.21	74.7000
334.58	73.7500
334.94	75.8500
335.31	75.6500
335.67	75.4000
336.04	76.7500
336.40	75.1500
336.77	76.1000
337.13	76.5000
337.50	74.6500
337.86	75.9500
338.22	76.1000
338.59	75.9500
338.95	75.5000
339.32	74.9000
339.68	74.9000
340.05	74.5500
340.41	75.1500
340.78	75.9500
341.14	76.3000
341.51	75.4500
341.87	75.2000
342.24	76.0500
342.60	76.1500
342.96	75.4000
343.33	76.1000
343.69	76.0000
344.06	75.5500
344.42	76.4000
344.79	75.8000
345.15	75.6000
345.51	77.3500
345.88	76.4500
346.24	75.1000
346.61	75.9000
346.97	75.1000
347.34	75.5500
347.70	77.1500
348.06	76.4500
348.43	74.8000
348.79	75.5000
349.16	76.2500
349.52	76.0500
349.88	76.4000
350.25	76.0500
350.61	75.8000
350.97	75.3500
351.34	75.7000
351.70	75.9500
352.07	76.5000
352.43	76.7000
352.79	76.5500
353.16	76.2500
353.52	75.7000
353.88	74.9000
354.25	76.6500
354.61	76.2500
354.97	76.2500
355.34	75.8000
355.70	74.6500
356.06	75.3000
356.43	77.0500
356.79	77.2500
357.15	75.7500
357.52	75.5000
357.88	75.7500
358.24	77.3500
358.60	77.3500
358.97	77.1500
359.33	77.0000
359.69	75.8500
360.06	77.6000
360.42	76.6000
360.78	76.8500
361.14	76.3500
361.51	75.3500
361.87	77.0000
362.23	77.4000
362.60	77.4500
362.96	77.0000
363.32	77.9000
363.68	76.3000
364.05	76.7000
364.41	76.5000
364.77	77.3500
365.13	77.0500
365.50	76.8500
365.86	76.7500
366.22	78.2500
366.58	76.8000
366.95	76.8500
367.31	77.8500
367.67	76.9500
368.03	77.5000
368.39	77.6000
368.76	78.4500
369.12	77.4500
369.48	76.9000
369.84	78.5000
370.20	78.4000
370.57	79.0000
370.93	78.0500
371.29	79.0500
371.65	78.6500
372.01	77.2000
372.38	79.0500
372.74	77.7000
373.10	78.6000
373.46	78.0000
373.82	78.4000
374.18	78.8500
374.55	78.3500
374.91	78.7000
375.27	79.3500
375.63	78.8500
375.99	79.9000
376.35	79.6500
376.71	79.8000
377.08	80.3000
377.44	81.2000
377.80	81.2000
378.16	81.0000
378.52	81.9000
378.88	81.1000
379.24	82.0000
379.60	83.0000
379.97	84.8000
380.33	83.7500
380.69	84.2000
381.05	84.5000
381.41	86.5500
381.77	88.3000
382.13	89.0000
382.49	89.3000
382.85	89.9500
383.21	91.4500
383.57	91.1000
383.94	93.4000
384.30	94.6500
384.66	94.9500
385.02	94.4500
385.38	97.9500
385.74	98.3500
386.10	98.4000
386.46	99.8000
386.82	101.1500
387.18	101.1500
387.54	102.9000
387.90	102.8500
388.26	105.3000
388.62	107.1500
388.98	106.8000
389.34	107.9000
389.70	111.0500
390.06	107.8500
390.42	109.8500
390.78	114.5000
391.14	116.3000
391.50	116.1000
391.86	118.0500
392.22	119.2000
392.58	120.0000
392.94	115.2000
393.30	118.1000
393.66	121.5500
394.02	122.5000
394.38	120.6000
394.74	124.9000
395.10	124.3000
395.46	129.2500
395.82	126.2000
396.18	126.7500
396.54	130.5000
396.90	133.5500
397.26	132.3000
397.62	133.5500
397.98	138.1500
398.34	133.2500
398.70	134.7000
399.05	132.7000
399.41	132.8000
399.77	137.8000
400.13	142.5500
400.49	141.9500
400.85	148.0000
401.21	139.5500
401.57	148.1000
401.93	147.7500
402.29	146.4500
402.65	148.6500
403.00	153.9500
403.36	157.3500
403.72	156.2500
404.08	162.3500
404.44	154.2000
404.80	157.4500
405.16	163.7500
405.52	167.7000
405.87	169.6500
406.23	171.0500
406.59	161.9000
406.95	165.9500
407.31	168.5000
407.67	167.7000
408.03	167.5000
408.38	175.9000
408.74	183.2500
409.10	184.6500
409.46	175.1000
409.82	184.3000
410.17	183.6000
410.53	179.2000
410.89	184.8000
411.25	174.6000
411.61	183.0000
411.97	193.1000
412.32	192.4000
412.68	196.4000
413.04	193.0500
413.40	178.9500
413.75	187.8000
414.11	195.6500
414.47	195.1500
414.83	206.7500
415.19	202.2500
415.54	193.9000
415.90	205.8500
416.26	204.3000
416.62	209.8500
416.97	201.5500
417.33	213.6000
417.69	213.6000
418.05	213.0000
418.40	204.2500
418.76	214.4500
419.12	224.7000
419.48	221.4500
419.83	231.0000
420.19	211.7500
420.55	217.2500
420.90	236.9500
421.26	224.3500
421.62	223.3000
421.98	237.0000
422.33	243.7500
422.69	246.9000
423.05	250.6000
423.40	231.2000
423.76	226.8000
424.12	248.4000
424.47	247.9000
424.83	246.8500
425.19	247.2000
425.54	241.5000
425.90	258.9000
426.26	265.9500
426.61	266.4000
426.97	236.3500
427.33	266.0000
427.68	264.2500
428.04	278.7500
428.40	290.5000
428.75	299.1000
429.11	276.0000
429.47	301.7500
429.82	296.6000
430.18	300.5000
430.53	287.7000
430.89	290.5000
431.25	300.8000
431.60	304.6000
431.96	300.0000
432.31	296.6000
432.67	319.0000
433.03	321.4500
433.38	311.1000
433.74	321.2000
434.09	313.8500
434.45	305.9500
434.81	306.8500
435.16	324.4000
435.52	307.7000
435.87	302.1500
436.23	307.4500
436.58	314.1000
436.94	333.4500
437.30	330.4500
437.65	348.0500
438.01	337.4000
438.36	341.2500
438.72	347.1500
439.07	334.9000
439.43	336.8500
439.78	362.4500
440.14	376.9500
440.49	348.8500
440.85	354.1000
441.20	368.2000
441.56	364.4000
441.91	390.5500
442.27	365.2000
442.62	369.2500
442.98	378.1000
443.33	369.0500
443.69	379.5500
444.04	367.6000
444.40	357.3000
444.75	398.7000
445.11	397.7500
445.46	410.6000
445.82	407.0000
446.17	382.4500
446.53	403.1000
446.88	443.3000
447.23	379.1500
447.59	386.8500
447.94	380.8500
448.30	415.5500
448.65	400.7000
449.01	425.7000
449.36	423.7000
449.72	458.2000
450.07	474.0500
450.42	457.9000
450.78	439.8500
451.13	459.5000
451.49	448.2500
451.84	429.5500
452.19	436.2500
452.55	464.8500
452.90	466.4500
453.26	491.7500
453.61	512.3000
453.96	435.8000
454.32	488.1500
454.67	490.7000
455.02	461.0500
455.38	481.1500
455.73	479.0000
456.09	516.7500
456.44	518.0500
456.79	506.5500
457.15	511.3000
457.50	484.2500
457.85	508.0000
458.21	498.4500
458.56	526.1500
458.91	515.8500
459.27	490.6000
459.62	506.7000
459.97	507.6500
460.32	528.9000
460.68	530.5500
461.03	528.3500
461.38	545.5500
461.74	593.7500
462.09	571.9000
462.44	552.7000
462.80	542.3500
463.15	549.5500
463.50	551.4500
463.85	595.2000
464.21	571.7000
464.56	606.7000
464.91	572.8500
465.26	584.2500
465.62	581.0000
465.97	617.4000
466.32	619.6000
466.67	614.5000
467.03	628.1000
467.38	636.2000
467.73	643.9000
468.08	657.9000
468.44	668.6500
468.79	666.5000
469.14	627.9500
469.49	666.7500
469.85	691.1500
470.20	744.9000
470.55	739.2000
470.90	749.2500
471.25	722.6500
471.61	744.7500
471.96	756.4500
472.31	770.5000
472.66	773.3000
473.01	797.8000
473.36	819.7000
473.72	805.1000
474.07	831.2500
474.42	847.3500
474.77	846.1000
475.12	873.8000
475.47	895.4500
475.83	902.9500
476.18	900.3500
476.53	894.3000
476.88	941.2500
477.23	946.6000
477.58	941.8500
477.93	966.5500
478.28	957.9500
478.64	982.6000
478.99	1008.3000
479.34	1021.2500
479.69	1037.3500
480.04	1064.5500
480.39	1068.1500
480.74	1055.9500
481.09	1114.0000
481.44	1118.7500
481.79	1115.9500
482.15	1125.1000
482.50	1148.9500
482.85	1150.0000
483.20	1191.6500
483.55	1185.8500
483.90	1212.6000
484.25	1209.6000
484.60	1205.4000
484.95	1234.6000
485.30	1247.5000
485.65	1267.0000
486.00	1277.0000
486.35	1264.9500
486.70	1277.1500
487.05	1320.1000
487.40	1321.2500
487.75	1341.5500
488.10	1348.6500
488.45	1341.2000
488.80	1354.5000
489.15	1382.9500
489.50	1388.1000
489.85	1403.4500
490.20	1402.4000
490.55	1421.6000
490.90	1429.3500
491.25	1440.4500
491.60	1437.2000
491.95	1441.4500
492.30	1461.2000
492.65	1478.7500
493.00	1471.1000
493.35	1482.0000
493.70	1497.0500
494.05	1511.6500
494.40	1532.3000
494.75	1537.7500
495.10	1525.4500
495.45	1535.2500
495.80	1545.6000
496.15	1568.4500
496.50	1553.2000
496.84	1555.6000
497.19	1569.0000
497.54	1592.8500
497.89	1590.5000
498.24	1592.9000
498.59	1619.4500
498.94	1605.6000
499.29	1615.3000
499.64	1621.8000
499.99	1639.1500
500.33	1650.1500
500.68	1652.3000
501.03	1659.1000
501.38	1663.1000
501.73	1686.9000
502.08	1682.9500
502.43	1696.7000
502.77	1706.9000
503.12	1711.8500
503.47	1720.6500
503.82	1735.0000
504.17	1741.9500
504.52	1754.4500
504.86	1760.8500
505.21	1791.1000
505.56	1783.7000
505.91	1793.1500
506.26	1790.5500
506.61	1812.6000
506.95	1824.7000
507.30	1827.7000
507.65	1856.1000
508.00	1851.6000
508.35	1858.9000
508.69	1862.2000
509.04	1880.7500
509.39	1876.9000
509.74	1884.8500
510.08	1898.4000
510.43	1920.6000
510.78	1924.9000
511.13	1931.2500
511.47	1944.5000
511.82	1953.1000
512.17	1953.7000
512.52	1983.8000
512.86	1994.5500
513.21	2006.0500
513.56	2007.0000
513.91	2033.0000
514.25	2032.3000
514.60	2043.9500
514.95	2054.3000
515.30	2066.1499
515.64	2068.8501
515.99	2096.8501
516.34	2104.5000
516.68	2122.4500
517.03	2128.7000
517.38	2132.0000
517.72	2162.2500
518.07	2155.1001
518.42	2167.3000
518.76	2184.9500
519.11	2195.8501
519.46	2217.1001
519.80	2203.3999
520.15	2219.8000
520.50	2237.9500
520.84	2240.3999
521.19	2252.5000
521.54	2261.3000
521.88	2258.3999
522.23	2288.9500
522.58	2279.6001
522.92	2289.5000
523.27	2308.6001
523.61	2310.4500
523.96	2316.0000
524.31	2351.9500
524.65	2353.3501
525.00	2350.3000
525.34	2330.1499
525.69	2345.5500
526.04	2376.1001
526.38	2380.7500
526.73	2385.8501
527.07	2402.3999
527.42	2397.7500
527.76	2415.2000
528.11	2430.0500
528.46	2417.7000
528.80	2425.8000
529.15	2408.6001
529.49	2418.2000
529.84	2434.2000
530.18	2434.4500
530.53	2460.0500
530.87	2457.5500
531.22	2459.0000
531.56	2462.2500
531.91	2473.8999
532.25	2466.8501
532.60	2467.4500
532.94	2484.1499
533.29	2482.3000
533.63	2478.4500
533.98	2478.0000
534.32	2488.2500
534.67	2521.2500
535.01	2525.4500
535.36	2517.1001
535.70	2542.1499
536.05	2547.9500
536.39	2558.7000
536.74	2527.8999
537.08	2523.8501
537.43	2519.6001
537.77	2546.2500
538.12	2569.1499
538.46	2574.7000
538.80	2590.1499
539.15	2563.9500
539.49	2583.8999
539.84	2608.7500
540.18	2604.9500
540.53	2606.2000
540.87	2600.8999
541.21	2623.5000
541.56	2616.9500
541.90	2637.6499
542.25	2617.8501
542.59	2622.7500
542.93	2660.7000
543.28	2643.5000
543.62	2659.8501
543.97	2666.1499
544.31	2669.1499
544.65	2670.7500
545.00	2685.1499
545.34	2692.6499
545.68	2697.5000
546.03	2696.2500
546.37	2714.3999
546.71	2714.3000
547.06	2728.0500
547.40	2727.5000
547.74	2760.7500
548.09	2749.2500
548.43	2751.7000
548.77	2764.2500
549.12	2757.5500
549.46	2757.1499
549.80	2778.6001
550.15	2801.4500
550.49	2795.3501
550.83	2802.6001
551.17	2810.6499
551.52	2812.8000
551.86	2810.4500
552.20	2834.1001
552.55	2850.9500
552.89	2851.0000
553.23	2867.1001
553.57	2872.5000
553.92	2870.3999
554.26	2888.2500
554.60	2876.3000
554.94	2887.0500
555.29	2904.0500
555.63	2912.1499
555.97	2929.8000
556.31	2923.5000
556.66	2946.9500
557.00	2925.2000
557.34	2948.6499
557.68	2971.5500
558.02	2977.3501
558.37	2975.1499
558.71	2982.9500
559.05	2981.7000
559.39	2994.1499
559.73	3011.6499
560.08	3009.9500
560.42	3018.0000
560.76	3021.5500
561.10	3037.2500
561.44	3021.7000
561.78	3048.3501
562.13	3058.3999
562.47	3041.7000
562.81	3072.8999
563.15	3065.1499
563.49	3074.4500
563.83	3094.4500
564.17	3090.4500
564.52	3098.1499
564.86	3109.3999
565.20	3104.9500
565.54	3106.3999
565.88	3107.8000
566.22	3126.3501
566.56	3109.7500
566.90	3131.1001
567.24	3137.2500
567.59	3131.2000
567.93	3135.3000
568.27	3151.1499
568.61	3169.9500
568.95	3160.3000
569.29	3156.5000
569.63	3185.8999
569.97	3174.6499
570.31	3132.7500
570.65	3160.1499
570.99	3167.7500
571.33	3189.7000
571.67	3175.2000
572.01	3175.2500
572.35	3199.7500
572.69	3199.0000
573.03	3206.3000
573.37	3201.3000
573.71	3195.4500
574.05	3177.8501
574.39	3184.5500
574.73	3210.5000
575.07	3187.8999
575.41	3201.3999
575.75	3208.6499
576.09	3234.2000
576.43	3218.8999
576.77	3218.2500
577.11	3210.2500
577.45	3214.6499
577.79	3203.0000
578.13	3224.3000
578.47	3187.8999
578.81	3205.4500
579.15	3215.3999
579.49	3247.6499
579.83	3243.8999
580.17	3242.8999
580.51	3242.3000
580.85	3235.2500
581.19	3239.8000
581.53	3224.2000
581.87	3229.7500
582.20	3243.3999
582.54	3246.0500
582.88	3236.7000
583.22	3234.4500
583.56	3218.0000
583.90	3253.8000
584.24	3245.8000
584.58	3244.0000
584.92	3264.1001
585.25	3257.4500
585.59	3248.5500
585.93	3270.2000
586.27	3279.0000
586.61	3237.1001
586.95	3272.8999
587.29	3278.3501
587.62	3251.8000
587.96	3268.8000
588.30	3279.1001
588.64	3263.7000
588.98	3272.3000
589.31	3288.3000
589.65	3271.5500
589.99	3253.6499
590.33	3283.5500
590.67	3286.9500
591.01	3286.5500
591.34	3296.0500
591.68	3295.3999
592.02	3312.1001
592.36	3300.8999
592.69	3294.6499
593.03	3306.3000
593.37	3311.0000
593.71	3303.3999
594.04	3305.2000
594.38	3304.3501
594.72	3323.9500
595.06	3312.5500
595.39	3310.0500
595.73	3323.5000
596.07	3348.2000
