OOIBase32 Version 1.0.0.8 Data File
++++++++++++++++++++++++++++++++++++
Date: Wednesday, January 23, 1980, 02:12:12
User: Valued Ocean Optics Customer
Spectrometer Serial Number: Unknown
Spectrometer Channel: Master
Integration Time (msec): 3
Spectra Averaged: 20
Boxcar Smoothing: 0
Correct for Electrical Dark: Disabled
Time Normalized: Disabled
Dual-beam Reference: Disabled
Reference Channel: Master
>>>>>Begin Spectral Data<<<<<
179.00	0.0000
179.38	0.0000
179.75	67.1500
180.13	67.1500
180.51	68.3500
180.88	69.0000
181.26	69.3000
181.64	68.2000
182.02	68.6000
182.39	69.4000
182.77	68.4000
183.15	68.6000
183.52	68.1000
183.90	68.5500
184.28	69.2500
184.65	68.0000
185.03	68.0500
185.41	68.2500
185.78	67.6500
186.16	68.5000
186.53	67.7000
186.91	68.5000
187.29	67.4500
187.66	67.6500
188.04	68.5000
188.42	70.4000
188.79	71.5000
189.17	71.2500
189.55	70.7500
189.92	70.5500
190.30	71.5000
190.67	71.2000
191.05	71.1500
191.43	70.3000
191.80	71.1000
192.18	70.9500
192.56	70.9000
192.93	70.8500
193.31	71.1500
193.68	70.4500
194.06	71.9000
194.44	72.1000
194.81	71.4000
195.19	70.6500
195.56	71.0000
195.94	70.7500
196.32	71.4500
196.69	70.4500
197.07	70.7500
197.44	70.9500
197.82	70.6500
198.19	71.2000
198.57	71.1500
198.95	71.9000
199.32	71.3500
199.70	70.7500
200.07	72.1000
200.45	72.7500
200.82	71.9500
201.20	72.0500
201.57	71.6000
201.95	70.4500
202.33	71.5500
202.70	71.6500
203.08	70.6500
203.45	72.3000
203.83	71.0500
204.20	70.8000
204.58	70.7000
204.95	72.2000
205.33	71.9000
205.70	72.1000
206.08	71.2500
206.45	70.7500
206.83	72.2500
207.20	71.6000
207.58	71.3000
207.95	71.4000
208.33	72.1000
208.70	71.5500
209.08	72.0500
209.45	71.4500
209.83	71.5000
210.20	71.0500
210.58	71.2500
210.95	71.1000
211.33	71.5000
211.70	71.4500
212.08	72.0000
212.45	72.3500
212.83	71.1000
213.20	71.3000
213.58	71.9000
213.95	71.6500
214.33	72.2000
214.70	70.8000
215.07	71.5500
215.45	70.9500
215.82	71.5500
216.20	72.2000
216.57	72.1500
216.95	71.7500
217.32	71.6500
217.70	70.8000
218.07	72.4000
218.44	71.1000
218.82	70.8500
219.19	72.3000
219.57	71.7500
219.94	71.5000
220.32	71.6000
220.69	72.0500
221.06	70.6000
221.44	71.6000
221.81	72.6500
222.19	71.3000
222.56	70.9500
222.93	72.5500
223.31	72.3000
223.68	71.4000
224.06	71.5000
224.43	72.0000
224.80	71.3500
225.18	72.7500
225.55	71.4500
225.92	72.2500
226.30	71.5500
226.67	72.1500
227.05	71.7000
227.42	71.9000
227.79	70.6500
228.17	71.7500
228.54	72.2500
228.91	72.2000
229.29	71.4000
229.66	71.5500
230.03	71.2500
230.41	71.3500
230.78	72.2500
231.15	72.2500
231.53	71.2000
231.90	72.4000
232.27	70.8000
232.65	71.3500
233.02	71.0000
233.39	70.8000
233.77	72.0000
234.14	71.4000
234.51	72.1000
234.89	70.4000
235.26	72.3000
235.63	72.1000
236.01	72.1500
236.38	72.1500
236.75	71.4000
237.12	71.8500
237.50	71.8500
237.87	71.3000
238.24	72.1000
238.62	72.3500
238.99	71.7500
239.36	72.4500
239.73	71.2500
240.11	71.9500
240.48	71.1000
240.85	71.7500
241.23	71.6500
241.60	72.1500
241.97	72.2500
242.34	72.4000
242.72	72.5000
243.09	72.4500
243.46	72.0000
243.83	71.6500
244.21	71.2000
244.58	72.5500
244.95	72.0000
245.32	71.8500
245.70	71.8500
246.07	70.9500
246.44	71.4000
246.81	71.8500
247.18	71.0500
247.56	72.4500
247.93	72.6000
248.30	72.7000
248.67	71.3000
249.04	70.5000
249.42	71.5000
249.79	72.3000
250.16	72.7000
250.53	71.8500
250.90	71.0500
251.28	73.2000
251.65	72.9500
252.02	72.5000
252.39	71.4500
252.76	71.5000
253.14	71.0000
253.51	71.9000
253.88	71.6500
254.25	71.8500
254.62	71.1500
254.99	71.1500
255.37	71.6500
255.74	72.2500
256.11	71.2000
256.48	72.5500
256.85	71.6000
257.22	73.3500
257.59	73.0000
257.97	72.2000
258.34	72.1000
258.71	73.1500
259.08	71.6500
259.45	72.4500
259.82	72.2500
260.19	71.7500
260.56	72.5000
260.94	71.8000
261.31	72.9500
261.68	73.2000
262.05	71.6000
262.42	70.9000
262.79	72.5000
263.16	72.0500
263.53	72.0500
263.90	72.9500
264.28	72.6000
264.65	71.5500
265.02	71.0000
265.39	73.2000
265.76	72.0500
266.13	72.8000
266.50	72.8500
266.87	72.1500
267.24	71.7000
267.61	71.5000
267.98	71.8000
268.35	72.5000
268.72	71.8000
269.09	71.9500
269.46	71.8500
269.84	72.1000
270.21	72.7000
270.58	73.0000
270.95	72.0000
271.32	72.5500
271.69	72.1000
272.06	71.6000
272.43	71.7500
272.80	72.3000
273.17	71.4500
273.54	72.3500
273.91	72.8000
274.28	71.6500
274.65	71.5500
275.02	72.1000
275.39	71.7500
275.76	72.5500
276.13	71.7000
276.50	72.6000
276.87	71.5500
277.24	72.6500
277.61	72.1000
277.98	71.1500
278.35	71.1500
278.72	72.2000
279.09	72.0500
279.46	71.8500
279.83	71.5000
280.20	72.3000
280.57	71.1500
280.94	72.2000
281.31	71.8000
281.67	72.5000
282.04	72.5500
282.41	72.4000
282.78	72.0000
283.15	72.3000
283.52	72.0000
283.89	73.4500
284.26	72.7500
284.63	73.1000
285.00	71.8500
285.37	72.3500
285.74	71.9000
286.11	72.4000
286.48	71.7500
286.85	72.1500
287.21	71.8500
287.58	72.6500
287.95	72.9000
288.32	72.1000
288.69	72.8000
289.06	72.6500
289.43	72.7500
289.80	72.2000
290.17	72.2000
290.54	72.6500
290.90	72.0000
291.27	72.5000
291.64	72.5500
292.01	71.8500
292.38	71.9000
292.75	73.5500
293.12	71.9500
293.48	71.8000
293.85	72.2000
294.22	71.7000
294.59	72.2500
294.96	71.9000
295.33	71.7500
295.70	71.8000
296.06	72.4500
296.43	72.6500
296.80	72.1500
297.17	73.1500
297.54	72.5000
297.91	73.1500
298.27	72.4500
298.64	72.3000
299.01	73.0000
299.38	72.9500
299.75	72.0000
300.11	72.8500
300.48	72.7000
300.85	72.2000
301.22	72.0500
301.59	72.4500
301.95	73.3000
302.32	72.2000
302.69	72.2500
303.06	72.5000
303.43	71.2500
303.79	72.6500
304.16	72.6000
304.53	73.9000
304.90	72.5500
305.26	72.7000
305.63	72.8000
306.00	73.3500
306.37	73.0500
306.73	73.4500
307.10	72.6500
307.47	73.0500
307.84	73.1000
308.20	72.8500
308.57	73.0000
308.94	72.1500
309.31	73.5500
309.67	72.0500
310.04	73.1000
310.41	72.3000
310.77	73.6500
311.14	71.9000
311.51	72.7500
311.88	72.7000
312.24	72.5500
312.61	71.7000
312.98	72.1500
313.34	72.7500
313.71	73.0000
314.08	72.8000
314.44	72.9000
314.81	73.5000
315.18	73.0500
315.55	73.6000
315.91	72.8000
316.28	72.5000
316.65	73.6000
317.01	72.9500
317.38	73.4500
317.75	73.5000
318.11	72.8500
318.48	73.2000
318.84	72.9000
319.21	72.6500
319.58	72.6000
319.94	72.8000
320.31	72.8000
320.68	73.0000
321.04	72.5000
321.41	73.4000
321.78	73.5500
322.14	73.0500
322.51	73.2500
322.87	73.0000
323.24	72.8500
323.61	73.5500
323.97	72.5500
324.34	73.0500
324.70	72.0500
325.07	72.9500
325.44	73.6000
325.80	73.1000
326.17	73.0000
326.53	73.4000
326.90	72.0500
327.27	73.4500
327.63	72.4000
328.00	73.0000
328.36	73.8500
328.73	73.5000
329.09	72.2500
329.46	72.8000
329.83	73.2000
330.19	72.7500
330.56	73.0000
330.92	73.5000
331.29	73.3500
331.65	74.5000
332.02	73.5000
332.38	73.2000
332.75	73.2000
333.11	72.4500
333.48	72.0000
333.84	74.0500
334.21	73.5500
334.58	73.2000
334.94	73.6000
335.31	72.4500
335.67	72.7000
336.04	72.6500
336.40	72.7000
336.77	73.6000
337.13	73.8000
337.50	72.6000
337.86	73.9000
338.22	73.6000
338.59	73.4500
338.95	73.3000
339.32	73.6000
339.68	73.3000
340.05	74.1500
340.41	72.5000
340.78	73.4500
341.14	74.5500
341.51	73.8500
341.87	73.2000
342.24	72.6000
342.60	72.7500
342.96	73.3000
343.33	73.7500
343.69	73.9000
344.06	74.1500
344.42	72.9500
344.79	73.9000
345.15	73.1500
345.51	73.0500
345.88	73.4500
346.24	72.8000
346.61	72.6000
346.97	73.7500
347.34	73.6000
347.70	72.8000
348.06	73.5000
348.43	73.4500
348.79	73.4500
349.16	73.9000
349.52	72.8000
349.88	73.2500
350.25	73.6000
350.61	73.1500
350.97	73.7500
351.34	74.3000
351.70	73.7000
352.07	73.2500
352.43	74.4500
352.79	75.0000
353.16	74.0000
353.52	75.0000
353.88	75.0500
354.25	74.9500
354.61	74.2000
354.97	73.6000
355.34	74.3000
355.70	74.9500
356.06	73.8000
356.43	75.0000
356.79	74.2500
357.15	75.0000
357.52	74.9500
357.88	74.3000
358.24	74.5500
358.60	74.5500
358.97	74.6500
359.33	74.5000
359.69	74.3000
360.06	74.4000
360.42	74.6000
360.78	75.6000
361.14	74.2500
361.51	75.5000
361.87	75.5500
362.23	75.3000
362.60	75.4500
362.96	74.5000
363.32	74.8500
363.68	75.3500
364.05	75.0500
364.41	74.8500
364.77	74.1000
365.13	75.2500
365.50	76.2500
365.86	76.1500
366.22	75.9000
366.58	75.4000
366.95	75.6000
367.31	75.6000
367.67	74.7500
368.03	75.6500
368.39	76.0500
368.76	76.0000
369.12	75.5000
369.48	76.1000
369.84	76.0000
370.20	76.9500
370.57	76.6000
370.93	75.8500
371.29	76.3000
371.65	76.4500
372.01	77.0000
372.38	77.1000
372.74	76.3000
373.10	75.6500
373.46	77.6500
373.82	77.9000
374.18	76.8000
374.55	75.8500
374.91	77.5500
375.27	77.1500
375.63	76.8500
375.99	77.3500
376.35	77.6000
376.71	77.5000
377.08	76.3000
377.44	78.1500
377.80	78.0500
378.16	78.0000
378.52	77.3500
378.88	77.7000
379.24	76.9500
379.60	78.0000
379.97	78.6500
380.33	79.6000
380.69	78.9000
381.05	78.3000
381.41	77.7000
381.77	79.4500
382.13	79.5500
382.49	79.7000
382.85	79.3000
383.21	80.4000
383.57	80.1000
383.94	79.2000
384.30	81.3500
384.66	81.0000
385.02	80.3500
385.38	79.8500
385.74	80.7000
386.10	80.5500
386.46	80.4500
386.82	80.7500
387.18	80.8000
387.54	81.5500
387.90	81.3500
388.26	82.6500
388.62	81.3500
388.98	80.9500
389.34	81.7500
389.70	83.1000
390.06	82.0000
390.42	82.7500
390.78	82.6500
391.14	83.8000
391.50	82.4000
391.86	84.0500
392.22	83.4500
392.58	83.9500
392.94	83.3000
393.30	84.8000
393.66	84.2500
394.02	85.0000
394.38	83.3000
394.74	84.5500
395.10	84.5000
395.46	86.0500
395.82	85.2000
396.18	85.2500
396.54	86.0500
396.90	86.4500
397.26	86.5000
397.62	87.5500
397.98	88.1000
398.34	87.5500
398.70	86.7500
399.05	85.2500
399.41	85.1000
399.77	86.5500
400.13	86.0500
400.49	88.2000
400.85	88.9000
401.21	87.2500
401.57	89.5000
401.93	89.3000
402.29	89.3500
402.65	88.8000
403.00	89.8000
403.36	90.1500
403.72	90.4000
404.08	90.6000
404.44	89.5500
404.80	91.1500
405.16	93.1000
405.52	93.4500
405.87	93.2500
406.23	93.0000
406.59	91.4500
406.95	91.4500
407.31	91.5500
407.67	93.8000
408.03	91.4500
408.38	94.9500
408.74	95.2500
409.10	96.2500
409.46	94.6000
409.82	95.7000
410.17	95.6500
410.53	94.4500
410.89	96.1500
411.25	93.9000
411.61	95.3000
411.97	96.7500
412.32	96.2500
412.68	97.4000
413.04	96.5000
413.40	94.4000
413.75	96.6000
414.11	98.2500
414.47	98.5000
414.83	100.1000
415.19	100.2000
415.54	98.5500
415.90	100.5500
416.26	99.3000
416.62	100.6500
416.97	98.2500
417.33	101.0000
417.69	100.5000
418.05	99.9000
418.40	99.7500
418.76	100.3500
419.12	103.4500
419.48	102.1000
419.83	105.1500
420.19	99.5000
420.55	101.3500
420.90	105.2500
421.26	102.3000
421.62	103.8000
421.98	106.5500
422.33	106.0500
422.69	106.5500
423.05	107.3000
423.40	105.5500
423.76	103.7000
424.12	108.4500
424.47	106.9500
424.83	107.1500
425.19	107.2000
425.54	105.9000
425.90	108.9000
426.26	111.3500
426.61	111.4000
426.97	104.8000
427.33	111.6500
427.68	110.3500
428.04	113.1000
428.40	115.5500
428.75	115.8000
429.11	110.9000
429.47	116.7000
429.82	115.9000
430.18	115.7500
430.53	114.9500
430.89	114.4500
431.25	117.8000
431.60	117.4500
431.96	117.0000
432.31	116.1000
432.67	121.6500
433.03	120.9500
433.38	119.5000
433.74	122.3000
434.09	119.4000
434.45	116.8000
434.81	116.5000
435.16	120.6000
435.52	118.9500
435.87	116.9500
436.23	119.0000
436.58	118.8500
436.94	123.1000
437.30	122.7000
437.65	126.1000
438.01	123.8500
438.36	125.2000
438.72	125.2500
439.07	123.2500
439.43	122.9000
439.78	126.8500
440.14	129.7500
440.49	124.8500
440.85	127.3500
441.20	128.8000
441.56	127.1500
441.91	133.5000
442.27	129.6000
442.62	128.9500
442.98	130.3000
443.33	130.2500
443.69	131.0000
444.04	131.2500
444.40	126.3500
444.75	134.3000
445.11	135.4500
445.46	137.2000
445.82	136.1500
446.17	132.0500
446.53	136.2500
446.88	141.4000
447.23	130.1500
447.59	130.9500
447.94	130.5500
448.30	137.4000
448.65	134.4000
449.01	140.0000
449.36	139.7500
449.72	146.0000
450.07	148.2000
450.42	145.2500
450.78	141.6000
451.13	146.2000
451.49	142.6500
451.84	138.7500
452.19	141.3500
452.55	146.1500
452.90	146.7500
453.26	151.3000
453.61	155.3000
453.96	142.2500
454.32	149.9500
454.67	152.3500
455.02	146.4500
455.38	149.6500
455.73	149.4000
456.09	156.6500
456.44	157.4000
456.79	154.4500
457.15	154.9500
457.50	149.8500
457.85	154.0000
458.21	151.0000
458.56	157.3000
458.91	157.2000
459.27	151.0500
459.62	152.5000
459.97	155.2000
460.32	157.9500
460.68	160.0000
461.03	159.1000
461.38	160.9500
461.74	171.0500
462.09	168.0000
462.44	162.0500
462.80	161.6500
463.15	160.5500
463.50	163.1000
463.85	171.1500
464.21	165.5000
464.56	172.9500
464.91	165.3000
465.26	168.6500
465.62	166.6500
465.97	173.7500
466.32	173.8500
466.67	175.3500
467.03	176.3000
467.38	177.2000
467.73	179.7000
468.08	181.8000
468.44	183.1000
468.79	183.1000
469.14	176.7500
469.49	182.7000
469.85	187.8000
470.20	198.9500
470.55	196.9500
470.90	198.2000
471.25	193.5500
471.61	198.5000
471.96	200.9000
472.31	203.7000
472.66	204.7500
473.01	206.7500
473.36	212.1500
473.72	208.7500
474.07	214.2500
474.42	219.2000
474.77	218.0500
475.12	222.0000
475.47	227.1000
475.83	228.7500
476.18	226.9000
476.53	226.1500
476.88	236.0500
477.23	237.0000
477.58	235.8500
477.93	239.1500
478.28	237.8500
478.64	241.5000
478.99	247.2000
479.34	249.1000
479.69	253.0500
480.04	257.4000
480.39	257.9000
480.74	255.8000
481.09	266.5500
481.44	267.3500
481.79	269.1500
482.15	270.6000
482.50	273.0500
482.85	273.9000
483.20	280.8000
483.55	281.6000
483.90	284.1000
484.25	284.5000
484.60	284.8500
484.95	287.8000
485.30	290.8000
485.65	295.4500
486.00	297.6000
486.35	295.9000
486.70	298.0000
487.05	306.1500
487.40	306.6000
487.75	309.0500
488.10	312.3500
488.45	308.9000
488.80	313.2500
489.15	317.0500
489.50	319.2000
489.85	319.5000
490.20	321.4500
490.55	324.5500
490.90	327.6000
491.25	328.6500
491.60	325.6000
491.95	328.3000
492.30	331.4500
492.65	334.9000
493.00	335.2500
493.35	336.0000
493.70	341.0500
494.05	341.6500
494.40	345.8000
494.75	347.8000
495.10	349.8500
495.45	349.3000
495.80	351.5000
496.15	355.4000
496.50	353.4500
496.84	353.1500
497.19	357.8000
497.54	364.3500
497.89	362.3500
498.24	363.1000
498.59	369.3000
498.94	368.4000
499.29	371.0000
499.64	373.4000
499.99	377.2500
500.33	379.4500
500.68	383.1500
501.03	385.1000
501.38	389.0000
501.73	393.9500
502.08	395.3000
502.43	399.4500
502.77	404.6000
503.12	409.9500
503.47	413.3000
503.82	418.6000
504.17	423.4500
504.52	429.1000
504.86	437.7500
505.21	445.8000
505.56	451.9000
505.91	456.3500
506.26	461.1000
506.61	474.2500
506.95	479.8000
507.30	490.6500
507.65	504.1500
508.00	511.1500
508.35	521.7000
508.69	532.7500
509.04	543.4500
509.39	556.2500
509.74	568.4000
510.08	580.2000
510.43	599.1500
510.78	615.4500
511.13	630.2500
511.47	648.7000
511.82	662.2000
512.17	680.6500
512.52	703.8500
512.86	727.2000
513.21	746.8000
513.56	765.0500
513.91	795.1500
514.25	814.9000
514.60	843.8000
514.95	865.7500
515.30	885.8000
515.64	907.4500
515.99	946.0000
516.34	970.9500
516.68	996.8500
517.03	1021.9500
517.38	1048.2000
517.72	1086.5500
518.07	1104.2000
518.42	1132.0000
518.76	1164.4500
519.11	1187.1500
519.46	1225.0500
519.80	1236.4500
520.15	1264.7000
520.50	1297.4000
520.84	1320.5500
521.19	1346.6500
521.54	1365.9000
521.88	1382.7000
522.23	1416.5000
522.58	1430.9500
522.92	1451.9500
523.27	1476.8000
523.61	1490.1000
523.96	1516.6000
524.31	1543.6500
524.65	1560.5500
525.00	1566.8500
525.34	1568.1500
525.69	1586.6000
526.04	1615.5000
526.38	1626.2000
526.73	1639.5000
527.07	1660.7500
527.42	1668.1500
527.76	1680.8000
528.11	1694.9500
528.46	1694.4000
528.80	1706.6500
529.15	1706.0000
529.49	1712.8000
529.84	1726.5000
530.18	1735.3000
530.53	1756.1500
530.87	1756.2000
531.22	1760.2000
531.56	1766.8000
531.91	1775.9500
532.25	1778.0000
532.60	1781.3000
532.94	1795.2500
533.29	1797.2000
533.63	1794.0000
533.98	1789.5000
534.32	1802.8500
534.67	1827.2500
535.01	1832.9500
535.36	1830.2500
535.70	1848.7500
536.05	1850.5000
536.39	1860.3500
536.74	1840.9000
537.08	1837.7500
537.43	1835.7500
537.77	1852.7000
538.12	1875.3500
538.46	1876.6500
538.80	1890.7000
539.15	1870.6000
539.49	1885.6000
539.84	1906.9500
540.18	1909.0500
540.53	1903.7000
540.87	1902.5500
541.21	1919.2000
541.56	1915.6500
541.90	1925.0500
542.25	1917.7500
542.59	1920.9000
542.93	1945.0000
543.28	1933.4000
543.62	1943.7500
543.97	1944.0500
544.31	1952.3000
544.65	1956.1000
545.00	1965.3500
545.34	1973.3000
545.68	1970.6500
546.03	1971.5500
546.37	1986.4500
546.71	1990.4500
547.06	1995.9500
547.40	2001.5500
547.74	2025.1000
548.09	2010.6500
548.43	2013.3000
548.77	2019.6000
549.12	2016.7000
549.46	2026.6000
549.80	2038.1500
550.15	2049.0000
550.49	2044.3000
550.83	2052.5000
551.17	2062.0500
551.52	2067.1001
551.86	2065.3000
552.20	2071.9500
552.55	2093.6499
552.89	2087.1499
553.23	2093.7500
553.57	2105.7500
553.92	2100.3999
554.26	2116.0000
554.60	2109.0000
554.94	2116.8999
555.29	2127.6499
555.63	2133.6001
555.97	2151.0500
556.31	2141.0000
556.66	2157.8999
557.00	2146.5000
557.34	2165.6001
557.68	2184.0000
558.02	2176.6001
558.37	2183.8000
558.71	2184.5500
559.05	2182.0000
559.39	2196.8501
559.73	2207.5500
560.08	2205.7000
560.42	2214.5500
560.76	2216.2000
561.10	2222.6001
561.44	2215.8501
561.78	2239.8999
562.13	2242.1499
562.47	2230.0000
562.81	2247.0500
563.15	2250.7000
563.49	2254.2500
563.83	2272.3999
564.17	2272.5000
564.52	2271.6499
564.86	2274.8000
565.20	2274.0000
565.54	2274.3999
565.88	2281.0000
566.22	2293.1001
566.56	2283.0000
566.90	2295.1001
567.24	2302.3501
567.59	2299.5000
567.93	2307.8000
568.27	2315.7500
568.61	2329.7500
568.95	2315.9500
569.29	2318.0000
569.63	2344.5500
569.97	2330.1499
570.31	2298.6499
570.65	2318.0500
570.99	2329.5000
571.33	2341.9500
571.67	2328.0000
572.01	2333.2500
572.35	2342.0500
572.69	2349.3501
573.03	2353.0500
573.37	2347.1499
573.71	2340.1001
574.05	2330.8000
574.39	2340.5000
574.73	2356.6499
575.07	2336.9500
575.41	2349.8501
575.75	2357.7500
576.09	2373.9500
576.43	2366.6001
576.77	2361.1499
577.11	2354.8501
577.45	2361.6001
577.79	2354.8999
578.13	2368.1499
578.47	2345.1001
578.81	2351.7000
579.15	2361.7500
579.49	2388.6499
579.83	2377.2500
580.17	2377.8501
580.51	2380.3999
580.85	2382.8000
581.19	2379.3000
581.53	2367.5000
581.87	2371.7000
582.20	2382.2000
582.54	2382.1499
582.88	2380.5000
583.22	2361.1499
583.56	2349.8501
583.90	2384.5000
584.24	2377.2500
584.58	2379.2500
584.92	2395.0500
585.25	2394.3000
585.59	2388.8999
585.93	2400.0500
586.27	2409.0500
586.61	2377.0000
586.95	2402.1499
587.29	2407.3999
587.62	2388.2000
587.96	2400.0500
588.30	2403.7500
588.64	2398.7000
588.98	2397.5000
589.31	2414.5500
589.65	2405.1001
589.99	2387.3000
590.33	2412.9500
590.67	2415.7500
591.01	2412.6499
591.34	2429.1499
591.68	2420.8000
592.02	2428.3501
592.36	2424.1499
592.69	2421.1001
593.03	2431.8999
593.37	2430.2500
593.71	2429.3501
594.04	2428.1001
594.38	2428.1499
594.72	2444.6001
595.06	2435.6001
595.39	2435.3999
595.73	2442.1499
596.07	2460.5000
596.41	2453.3501
596.74	2452.1001
597.08	2454.6499
597.42	2455.9500
597.76	2451.3000
598.09	2462.9500
598.43	2446.3501
598.77	2465.2500
599.10	2482.7500
599.44	2466.0500
