OOIBase32 Version 1.0.0.8 Data File
++++++++++++++++++++++++++++++++++++
Date: Wednesday, January 23, 1980, 02:12:12
User: Valued Ocean Optics Customer
Spectrometer Serial Number: Unknown
Spectrometer Channel: Master
Integration Time (msec): 3
Spectra Averaged: 20
Boxcar Smoothing: 0
Correct for Electrical Dark: Disabled
Time Normalized: Disabled
Dual-beam Reference: Disabled
Reference Channel: Master
>>>>>Begin Spectral Data<<<<<
179.00	0.0000
179.38	0.0000
179.75	71.3500
180.13	72.3000
180.51	71.8500
180.88	71.9500
181.26	72.5000
181.64	72.2500
182.02	72.0500
182.39	72.4500
182.77	72.6500
183.15	72.0500
183.52	72.0000
183.90	71.9500
184.28	71.7000
184.65	72.4000
185.03	72.3000
185.41	71.7000
185.78	72.6000
186.16	72.7000
186.53	72.6000
186.91	72.2000
187.29	72.1000
187.66	72.9000
188.04	72.2500
188.42	72.0500
188.79	71.7500
189.17	72.8000
189.55	72.2000
189.92	73.4500
190.30	73.5000
190.67	72.5000
191.05	72.2000
191.43	73.6500
191.80	73.0000
192.18	73.0500
192.56	73.2000
192.93	73.3500
193.31	73.8500
193.68	73.9000
194.06	73.1500
194.44	73.2000
194.81	72.8000
195.19	72.7500
195.56	73.7000
195.94	73.0500
196.32	72.5000
196.69	72.8000
197.07	72.9000
197.44	73.0500
197.82	72.8000
198.19	73.2500
198.57	72.6000
198.95	72.4500
199.32	72.7500
199.70	73.2500
200.07	73.4500
200.45	73.4000
200.82	73.7500
201.20	73.9000
201.57	74.0500
201.95	73.4500
202.33	73.2000
202.70	73.3000
203.08	73.2000
203.45	73.6500
203.83	72.5000
204.20	73.3500
204.58	72.3000
204.95	73.5000
205.33	72.7000
205.70	73.3000
206.08	72.6500
206.45	73.2500
206.83	72.3500
207.20	72.3000
207.58	73.7500
207.95	73.3500
208.33	73.5500
208.70	73.2500
209.08	72.0500
209.45	73.1500
209.83	73.8500
210.20	73.0500
210.58	72.8500
210.95	74.8500
211.33	72.5500
211.70	73.2500
212.08	73.5500
212.45	74.1000
212.83	72.9500
213.20	72.7000
213.58	73.1000
213.95	73.3000
214.33	73.3500
214.70	72.9500
215.07	72.2000
215.45	73.1000
215.82	73.7000
216.20	73.2000
216.57	73.8000
216.95	73.5500
217.32	72.4000
217.70	73.5000
218.07	73.8500
218.44	73.5000
218.82	73.3500
219.19	73.8000
219.57	73.3500
219.94	73.7500
220.32	72.7500
220.69	73.5500
221.06	73.4000
221.44	72.6000
221.81	73.7500
222.19	73.7500
222.56	74.5000
222.93	73.1000
223.31	73.5500
223.68	73.5000
224.06	73.9500
224.43	74.2500
224.80	72.8000
225.18	72.6500
225.55	73.4000
225.92	73.5000
226.30	74.3000
226.67	73.1500
227.05	73.2500
227.42	73.7000
227.79	72.9500
228.17	73.2500
228.54	73.7000
228.91	73.3000
229.29	73.5000
229.66	72.5000
230.03	74.5500
230.41	73.4000
230.78	73.1500
231.15	73.7500
231.53	73.9500
231.90	73.4000
232.27	72.6500
232.65	73.0000
233.02	73.0000
233.39	73.5000
233.77	73.6500
234.14	72.4500
234.51	74.9000
234.89	73.9000
235.26	73.5500
235.63	73.6000
236.01	73.4500
236.38	74.2500
236.75	73.6500
237.12	73.3500
237.50	73.8000
237.87	73.9000
238.24	73.6500
238.62	73.6000
238.99	73.9000
239.36	73.6500
239.73	73.3000
240.11	74.4000
240.48	72.4500
240.85	74.6500
241.23	73.0000
241.60	73.2500
241.97	73.3500
242.34	73.6500
242.72	73.2500
243.09	72.4500
243.46	74.1000
243.83	73.5000
244.21	73.1000
244.58	73.3000
244.95	73.4500
245.32	73.0500
245.70	74.5500
246.07	73.8500
246.44	74.1000
246.81	74.0000
247.18	72.7500
247.56	74.8000
247.93	72.9500
248.30	73.7500
248.67	73.4500
249.04	72.5500
249.42	72.6500
249.79	73.3500
250.16	72.7500
250.53	74.2000
250.90	73.8000
251.28	73.4500
251.65	73.4500
252.02	72.7000
252.39	73.6500
252.76	73.4500
253.14	73.9500
253.51	72.2000
253.88	73.6500
254.25	74.4500
254.62	73.2000
254.99	73.7000
255.37	74.3000
255.74	74.2000
256.11	73.4000
256.48	74.3500
256.85	73.4500
257.22	73.3500
257.59	72.9500
257.97	73.3000
258.34	73.1500
258.71	73.2000
259.08	73.4000
259.45	73.0500
259.82	73.6000
260.19	72.8500
260.56	73.5000
260.94	75.4000
261.31	73.3500
261.68	73.3500
262.05	73.3000
262.42	73.4500
262.79	74.5000
263.16	73.1000
263.53	73.2000
263.90	73.6000
264.28	73.2000
264.65	73.6500
265.02	74.9500
265.39	73.0000
265.76	73.9000
266.13	73.3500
266.50	74.1000
266.87	73.2500
267.24	73.0000
267.61	73.8500
267.98	72.8500
268.35	73.9500
268.72	73.8000
269.09	73.9000
269.46	73.8500
269.84	74.1500
270.21	73.2500
270.58	72.8000
270.95	73.8000
271.32	74.7000
271.69	74.1000
272.06	75.1500
272.43	74.1500
272.80	73.4500
273.17	73.6000
273.54	73.2500
273.91	73.6500
274.28	74.3000
274.65	73.1000
275.02	73.8000
275.39	73.6500
275.76	74.5500
276.13	72.9500
276.50	74.1500
276.87	73.7000
277.24	73.7000
277.61	73.7000
277.98	73.6000
278.35	73.7500
278.72	74.3500
279.09	72.3500
279.46	73.9500
279.83	73.6000
280.20	73.3000
280.57	73.1000
280.94	73.3000
281.31	72.9500
281.67	73.1000
282.04	73.3500
282.41	74.0000
282.78	72.8000
283.15	73.2000
283.52	73.3000
283.89	74.6000
284.26	73.9500
284.63	73.9500
285.00	72.6500
285.37	73.9500
285.74	72.5500
286.11	73.4000
286.48	72.5000
286.85	74.5500
287.21	73.8000
287.58	73.3000
287.95	72.5500
288.32	73.4000
288.69	74.1500
289.06	73.0500
289.43	74.5000
289.80	73.7500
290.17	72.4500
290.54	73.0000
290.90	75.1500
291.27	73.3000
291.64	71.9500
292.01	73.1500
292.38	74.1000
292.75	73.6500
293.12	73.5000
293.48	74.2000
293.85	73.3500
294.22	73.4500
294.59	72.9500
294.96	74.1000
295.33	73.7000
295.70	72.6000
296.06	72.9500
296.43	73.0500
296.80	73.6500
297.17	73.2000
297.54	72.9500
297.91	72.7500
298.27	73.5500
298.64	73.6500
299.01	73.3000
299.38	73.8500
299.75	74.4000
300.11	74.2500
300.48	73.5500
300.85	74.1000
301.22	72.5500
301.59	73.4500
301.95	73.4500
302.32	73.3500
302.69	73.5500
303.06	73.7500
303.43	74.0500
303.79	72.7500
304.16	73.6000
304.53	74.2000
304.90	73.2500
305.26	73.7500
305.63	73.2500
306.00	73.9500
306.37	73.1500
306.73	73.6500
307.10	73.2000
307.47	73.5500
307.84	74.1500
308.20	73.2500
308.57	74.2000
308.94	73.8500
309.31	74.5500
309.67	74.8500
310.04	74.2000
310.41	74.0500
310.77	73.7000
311.14	74.0000
311.51	73.3500
311.88	73.9500
312.24	74.5000
312.61	73.0500
312.98	74.4000
313.34	74.5000
313.71	73.5000
314.08	72.7000
314.44	73.9500
314.81	73.8500
315.18	72.7500
315.55	73.8500
315.91	73.2000
316.28	73.2500
316.65	73.1500
317.01	73.1000
317.38	73.3000
317.75	73.6500
318.11	74.3500
318.48	73.4000
318.84	74.0500
319.21	74.4500
319.58	73.4500
319.94	73.6500
320.31	72.8500
320.68	73.5500
321.04	74.0500
321.41	73.5000
321.78	73.2500
322.14	72.8000
322.51	73.6000
322.87	73.9000
323.24	74.1000
323.61	74.4500
323.97	73.7500
324.34	73.2500
324.70	72.6000
325.07	73.1500
325.44	75.3000
325.80	73.5000
326.17	73.2500
326.53	73.2500
326.90	73.5000
327.27	73.8500
327.63	73.7500
328.00	73.2500
328.36	73.6500
328.73	74.1500
329.09	72.6500
329.46	73.5500
329.83	73.3000
330.19	73.9000
330.56	73.7000
330.92	74.6500
331.29	74.2500
331.65	74.4500
332.02	73.8500
332.38	73.9000
332.75	74.0000
333.11	73.6000
333.48	74.2000
333.84	73.5000
334.21	73.6500
334.58	74.6000
334.94	73.7500
335.31	73.9000
335.67	74.7000
336.04	74.0500
336.40	73.8000
336.77	74.1500
337.13	73.2000
337.50	73.4000
337.86	74.0500
338.22	73.4500
338.59	73.9000
338.95	73.5000
339.32	73.6000
339.68	73.7500
340.05	73.7500
340.41	74.4000
340.78	73.7000
341.14	74.3000
341.51	73.6500
341.87	74.2000
342.24	73.7500
342.60	73.8500
342.96	73.0000
343.33	74.0000
343.69	73.9000
344.06	74.4000
344.42	73.5500
344.79	74.6500
345.15	74.1000
345.51	74.0000
345.88	74.4500
346.24	73.7500
346.61	74.1000
346.97	73.7000
347.34	73.8500
347.70	74.0000
348.06	74.8500
348.43	73.9000
348.79	74.2000
349.16	73.1000
349.52	74.9500
349.88	74.6000
350.25	74.0500
350.61	73.5000
350.97	74.5000
351.34	75.2000
351.70	72.9000
352.07	73.7000
352.43	74.0000
352.79	74.6000
353.16	74.4500
353.52	74.6000
353.88	74.0000
354.25	74.2000
354.61	75.3000
354.97	74.8500
355.34	74.1000
355.70	74.5000
356.06	73.9000
356.43	73.9000
356.79	72.9500
357.15	74.7500
357.52	74.1000
357.88	74.0500
358.24	74.8500
358.60	73.9000
358.97	74.4000
359.33	75.1000
359.69	73.6000
360.06	75.3500
360.42	74.7500
360.78	74.5000
361.14	74.3500
361.51	74.4500
361.87	73.3000
362.23	75.2000
362.60	74.1500
362.96	73.4000
363.32	74.4000
363.68	75.4000
364.05	76.1500
364.41	75.4500
364.77	74.6500
365.13	75.0000
365.50	74.5000
365.86	74.5500
366.22	73.8000
366.58	75.3000
366.95	75.1500
367.31	75.3000
367.67	75.3500
368.03	74.8500
368.39	75.4500
368.76	74.4000
369.12	74.2500
369.48	73.9500
369.84	75.3000
370.20	74.9000
370.57	74.8500
370.93	76.1000
371.29	75.1000
371.65	75.9000
372.01	75.1000
372.38	75.9000
372.74	76.2000
373.10	75.7000
373.46	75.5000
373.82	75.8500
374.18	75.6000
374.55	75.5500
374.91	76.0000
375.27	76.4500
375.63	76.2500
375.99	75.2500
376.35	75.8000
376.71	76.6500
377.08	75.3000
377.44	75.5000
377.80	75.0000
378.16	75.2000
378.52	75.6000
378.88	76.6500
379.24	76.1500
379.60	76.3500
379.97	76.1500
380.33	76.3500
380.69	76.4000
381.05	75.9000
381.41	77.0000
381.77	76.5500
382.13	76.4500
382.49	76.2500
382.85	76.9500
383.21	76.1000
383.57	76.9000
383.94	76.8500
384.30	77.0500
384.66	77.0500
385.02	77.1500
385.38	76.6000
385.74	77.4500
386.10	77.5500
386.46	78.1000
386.82	77.2500
387.18	78.2500
387.54	77.8500
387.90	77.1000
388.26	78.8000
388.62	76.8500
388.98	78.2500
389.34	78.5500
389.70	79.1000
390.06	78.4000
390.42	77.9500
390.78	80.0500
391.14	80.2000
391.50	79.7000
391.86	79.5500
392.22	77.8500
392.58	78.5000
392.94	78.6500
393.30	79.0500
393.66	78.7500
394.02	81.0500
394.38	79.3500
394.74	80.3000
395.10	80.0000
395.46	80.5000
395.82	79.9000
396.18	79.9500
396.54	80.1000
396.90	80.8000
397.26	80.5500
397.62	79.7000
397.98	80.2500
398.34	80.4000
398.70	80.5500
399.05	80.6000
399.41	79.4000
399.77	80.7000
400.13	80.7000
400.49	81.3000
400.85	81.6000
401.21	81.3000
401.57	81.8000
401.93	81.9500
402.29	82.0000
402.65	81.0000
403.00	81.9000
403.36	82.5500
403.72	82.3500
404.08	83.7500
404.44	82.8000
404.80	82.4000
405.16	83.1000
405.52	84.3500
405.87	84.2000
406.23	85.0000
406.59	82.9000
406.95	83.9000
407.31	82.9000
407.67	84.1500
408.03	84.0000
408.38	84.5500
408.74	85.6000
409.10	85.7500
409.46	85.3000
409.82	85.2500
410.17	84.7000
410.53	84.9500
410.89	86.1000
411.25	84.3500
411.61	84.8500
411.97	85.9000
412.32	85.6500
412.68	86.1500
413.04	85.6000
413.40	84.1500
413.75	85.2000
414.11	87.9500
414.47	86.0500
414.83	87.6000
415.19	86.3000
415.54	85.6000
415.90	87.7500
416.26	87.9000
416.62	88.0000
416.97	87.0500
417.33	88.1000
417.69	89.2000
418.05	88.9000
418.40	87.4000
418.76	87.4500
419.12	89.4000
419.48	89.8000
419.83	90.7000
420.19	88.3000
420.55	89.2500
420.90	91.1000
421.26	89.9500
421.62	90.7500
421.98	91.8500
422.33	90.8000
422.69	92.0000
423.05	91.9000
423.40	90.2500
423.76	90.1000
424.12	91.8500
424.47	92.3500
424.83	93.0500
425.19	92.0500
425.54	92.4000
425.90	94.2500
426.26	94.7000
426.61	95.5000
426.97	91.3500
427.33	94.4000
427.68	94.7500
428.04	96.0000
428.40	99.6000
428.75	98.7000
429.11	95.9500
429.47	99.7000
429.82	98.8000
430.18	98.3000
430.53	98.1000
430.89	99.3000
431.25	100.4500
431.60	100.5000
431.96	100.4000
432.31	101.7500
432.67	102.8500
433.03	104.1000
433.38	102.1000
433.74	104.0500
434.09	104.7500
434.45	102.8000
434.81	103.7500
435.16	105.4500
435.52	104.4000
435.87	103.5000
436.23	103.8000
436.58	104.6500
436.94	108.4000
437.30	106.9500
437.65	109.9000
438.01	108.9500
438.36	109.9500
438.72	109.8500
439.07	110.2000
439.43	110.7000
439.78	112.4000
440.14	115.8000
440.49	113.0500
440.85	113.0500
441.20	115.7000
441.56	115.7000
441.91	120.1500
442.27	115.9000
442.62	116.7000
442.98	119.2000
443.33	118.2000
443.69	120.3500
444.04	121.6500
444.40	117.2500
444.75	123.6500
445.11	124.9500
445.46	126.2000
445.82	127.7500
446.17	123.3500
446.53	128.3500
446.88	134.0500
447.23	124.5000
447.59	126.2000
447.94	126.4500
448.30	132.6500
448.65	129.8500
449.01	133.5000
449.36	135.0000
449.72	141.6000
450.07	142.3500
450.42	139.6500
450.78	138.6000
451.13	142.4500
451.49	138.5000
451.84	134.9000
452.19	136.9500
452.55	141.7000
452.90	140.7000
453.26	146.3500
453.61	147.8500
453.96	135.2000
454.32	142.3000
454.67	141.7000
455.02	138.6000
455.38	141.2500
455.73	138.5500
456.09	145.6500
456.44	144.5000
456.79	142.0500
457.15	142.1500
457.50	136.3500
457.85	138.5500
458.21	136.6000
458.56	141.4000
458.91	138.4500
459.27	134.1000
459.62	135.9500
459.97	135.5500
460.32	136.9000
460.68	136.5500
461.03	136.1500
461.38	136.3500
461.74	143.1500
462.09	139.6000
462.44	136.0500
462.80	134.3000
463.15	133.9000
463.50	135.0000
463.85	138.4000
464.21	136.4000
464.56	140.7000
464.91	136.0500
465.26	137.6500
465.62	136.3000
465.97	139.8500
466.32	140.4000
466.67	138.9000
467.03	139.6500
467.38	141.9000
467.73	143.3000
468.08	142.0500
468.44	142.9500
468.79	143.1000
469.14	139.1500
469.49	142.4000
469.85	144.3500
470.20	150.7000
470.55	149.9000
470.90	150.3000
471.25	147.4500
471.61	149.2500
471.96	150.7500
472.31	152.9000
472.66	151.4500
473.01	154.6500
473.36	157.1500
473.72	154.4000
474.07	156.9500
474.42	158.1000
474.77	157.9500
475.12	160.1500
475.47	163.0500
475.83	161.8000
476.18	162.8500
476.53	161.5500
476.88	167.9500
477.23	167.3500
477.58	166.6500
477.93	169.6000
478.28	168.0000
478.64	169.8500
478.99	173.3500
479.34	174.3500
479.69	177.4000
480.04	179.2000
480.39	178.5500
480.74	178.1000
481.09	184.3000
481.44	183.5000
481.79	184.3000
482.15	186.9000
482.50	186.8500
482.85	185.6000
483.20	192.8000
483.55	191.4000
483.90	193.5000
484.25	192.9000
484.60	193.4000
484.95	195.5000
485.30	197.4000
485.65	198.9000
486.00	201.0500
486.35	198.6500
486.70	200.4000
487.05	206.4500
487.40	205.1500
487.75	208.2000
488.10	208.8500
488.45	208.4000
488.80	207.2500
489.15	211.9500
489.50	212.0000
489.85	214.8000
490.20	214.7500
490.55	216.8000
490.90	217.7500
491.25	218.7500
491.60	217.0000
491.95	219.5000
492.30	219.1500
492.65	221.6000
493.00	223.4000
493.35	223.3500
493.70	226.4000
494.05	226.3500
494.40	229.9000
494.75	229.5500
495.10	228.7000
495.45	231.2000
495.80	230.7500
496.15	234.0500
496.50	231.2500
496.84	232.3500
497.19	233.0500
497.54	237.7500
497.89	237.7000
498.24	237.4500
498.59	236.6000
498.94	237.9000
499.29	238.6500
499.64	241.0500
499.99	241.1500
500.33	243.1000
500.68	243.8000
501.03	245.9500
501.38	247.0500
501.73	248.7500
502.08	247.7500
502.43	249.1500
502.77	252.3500
503.12	252.5500
503.47	251.6000
503.82	252.6000
504.17	255.0000
504.52	256.4000
504.86	258.1000
505.21	261.1000
505.56	259.9500
505.91	260.8000
506.26	259.5500
506.61	263.8000
506.95	263.9000
507.30	266.2500
507.65	268.3500
508.00	266.0000
508.35	268.7500
508.69	269.5000
509.04	271.5000
509.39	273.2000
509.74	273.2000
510.08	274.7500
510.43	277.1500
510.78	277.5500
511.13	278.8000
511.47	278.3000
511.82	280.9500
512.17	281.4000
512.52	282.4500
512.86	283.9500
513.21	284.8500
513.56	286.7500
513.91	288.1500
514.25	289.5000
514.60	293.0000
514.95	293.7000
515.30	292.0000
515.64	294.0500
515.99	295.5000
516.34	298.5000
516.68	300.7500
517.03	300.2500
517.38	300.8000
517.72	304.2000
518.07	303.3500
518.42	305.1500
518.76	306.0500
519.11	308.5000
519.46	310.5000
519.80	307.4500
520.15	308.6000
520.50	313.7000
520.84	312.4500
521.19	316.2000
521.54	315.3500
521.88	316.5000
522.23	318.5000
522.58	316.7500
522.92	318.2000
523.27	321.3500
523.61	320.4000
523.96	320.7000
524.31	325.1500
524.65	327.2000
525.00	326.4500
525.34	324.5000
525.69	325.0500
526.04	328.6000
526.38	328.8000
526.73	328.7500
527.07	332.6000
527.42	332.3500
527.76	335.0500
528.11	334.4000
528.46	331.9500
528.80	333.4500
529.15	333.4000
529.49	334.8000
529.84	334.5500
530.18	334.9000
530.53	337.8500
530.87	335.8000
531.22	337.0500
531.56	337.9000
531.91	339.1000
532.25	337.3500
532.60	337.8000
532.94	340.3500
533.29	339.0500
533.63	338.5000
533.98	339.4000
534.32	339.8000
534.67	344.7500
535.01	346.2500
535.36	341.1500
535.70	345.6500
536.05	345.7000
536.39	349.4500
536.74	346.5000
537.08	345.3500
537.43	341.7000
537.77	346.3000
538.12	351.5500
538.46	348.0000
538.80	352.3000
539.15	347.2000
539.49	350.4000
539.84	355.1500
540.18	354.5000
540.53	353.0500
540.87	352.6500
541.21	354.2500
541.56	354.9500
541.90	356.2000
542.25	355.9500
542.59	356.9500
542.93	359.1500
543.28	356.6000
543.62	359.6500
543.97	359.6500
544.31	359.1500
544.65	360.9500
545.00	362.7500
545.34	362.3500
545.68	362.6000
546.03	362.5000
546.37	366.9000
546.71	364.7500
547.06	367.9500
547.40	365.9000
547.74	371.4000
548.09	368.4500
548.43	370.8500
548.77	371.0000
549.12	368.3000
549.46	370.0500
549.80	370.9500
550.15	374.0000
550.49	374.5000
550.83	377.1500
551.17	378.4500
551.52	376.1000
551.86	376.9000
552.20	377.3000
552.55	378.7000
552.89	379.4500
553.23	383.8000
553.57	384.4500
553.92	383.6500
554.26	386.5000
554.60	385.9000
554.94	384.6000
555.29	384.6000
555.63	388.5000
555.97	389.6000
556.31	390.9500
556.66	389.5500
557.00	388.4500
557.34	391.7000
557.68	393.5500
558.02	394.9000
558.37	395.7000
558.71	394.3500
559.05	397.4500
559.39	396.0000
559.73	399.8500
560.08	398.2500
560.42	401.3500
560.76	401.8500
561.10	402.5000
561.44	399.6000
561.78	405.1000
562.13	406.0500
562.47	402.7500
562.81	406.4500
563.15	406.0500
563.49	406.2000
563.83	406.9500
564.17	408.5000
564.52	408.3000
564.86	411.7500
565.20	408.3000
565.54	409.3500
565.88	410.4000
566.22	411.3500
566.56	411.7000
566.90	412.0000
567.24	415.1500
567.59	415.6000
567.93	414.1500
568.27	414.3000
568.61	417.0000
568.95	413.9500
569.29	416.1500
569.63	419.7500
569.97	420.3500
570.31	411.1000
570.65	417.0000
570.99	419.1500
571.33	420.2000
571.67	418.4000
572.01	418.5500
572.35	420.5500
572.69	419.7000
573.03	424.3500
573.37	421.3500
573.71	422.1500
574.05	419.7000
574.39	421.2000
574.73	422.0500
575.07	419.5000
575.41	426.0500
575.75	424.0500
576.09	427.3500
576.43	422.8000
576.77	424.3500
577.11	420.7500
577.45	422.6500
577.79	422.4500
578.13	424.7000
578.47	422.8000
578.81	422.8500
579.15	423.3500
579.49	428.9500
579.83	425.6500
580.17	428.9500
580.51	427.7500
580.85	426.9000
581.19	427.4000
581.53	425.7000
581.87	426.9000
582.20	426.8500
582.54	428.4000
582.88	428.5500
583.22	425.3500
583.56	423.4000
583.90	427.9000
584.24	427.1000
584.58	426.3500
584.92	428.9500
585.25	428.9500
585.59	428.6000
585.93	427.5500
586.27	433.8000
586.61	422.1000
586.95	429.9000
587.29	430.7500
587.62	429.5500
587.96	430.4000
588.30	431.2500
588.64	429.5000
588.98	430.5000
589.31	433.0500
589.65	429.4000
589.99	428.8500
590.33	431.9500
590.67	431.2500
591.01	433.0500
591.34	434.2500
591.68	434.8000
592.02	433.0000
592.36	433.0500
592.69	432.7000
593.03	436.5500
593.37	436.3500
593.71	432.7000
594.04	435.0500
594.38	435.1000
594.72	437.0500
595.06	435.3000
595.39	433.9000
595.73	436.5000
596.07	441.4000
596.41	438.8500
596.74	442.3000
597.08	439.0500
597.42	439.6500
597.76	437.2500
598.09	440.2500
598.43	439.2000
598.77	440.3500
599.10	443.1500
599.44	440.7000
599.78	440.9000
600.11	440.3500
600.45	441.2500
600.79	443.2500
601.12	439.1000
601.46	444.6000
601.80	444.9500
602.13	444.3000
602.47	446.5000
602.81	442.9500
603.14	442.6500
603.48	446.4500
603.82	447.4500
604.15	447.3000
604.49	445.5500
604.82	447.2000
605.16	447.9000
